##TITLE=2 empty
##$NOTE=11.03.2023 11:00:3 ^0 x10 v:1 [Без приставки]
##$ITAB=-1,-1
##FIRSTX=499.643
##DELTAX=1.92912
##NPOINTS=2333
##XUNITS=1/CM
##YUNITS=TRANSMITTANCE
499.643	8395.13
501.572	7240.49
503.501	8954.58
505.43	9168.51
507.36	9165.17
509.289	8193.08
511.218	7746.56
513.147	8775.45
515.076	10328.2
517.005	10753.1
518.934	10209.4
520.863	8904.32
522.792	7191.43
524.722	7108.82
526.651	8188.92
528.58	9089.48
530.509	8974.22
532.438	7763.59
534.367	6507.47
536.296	7268.92
538.225	9808.34
540.155	10518.6
542.084	9600.91
544.013	7264.72
545.942	5732.59
547.871	4286.22
549.8	4791.52
551.729	7025.32
553.658	7639.66
555.588	8807.71
557.517	8361.36
559.446	8791.34
561.375	9907.44
563.304	9921.74
565.233	10619
567.162	11448.9
569.091	9894.25
571.021	10145.1
572.95	11947.2
574.879	12993.6
576.808	13201.3
578.737	13114.2
580.666	13272.2
582.595	13034.8
584.524	12834.6
586.454	12419
588.383	11856.8
590.312	12645
592.241	11615.6
594.17	7692.6
596.099	9712.51
598.028	11858.5
599.957	10812.5
601.887	10054.5
603.816	9795.39
605.745	9684.89
607.674	7976.26
609.603	6988.78
611.532	8073.04
613.461	9248.06
615.39	9603.84
617.32	8967.12
619.249	10062.7
621.178	9022.51
623.107	7347.73
625.036	7525.97
626.965	8301.61
628.894	8518.58
630.823	7146.7
632.753	5925.96
634.682	6064.96
636.611	7379.5
638.54	8867.74
640.469	9414.6
642.398	7471.56
644.327	5672.69
646.256	6482.64
648.186	8930.09
650.115	10364.1
652.044	12468.2
653.973	12984.4
655.902	10930.4
657.831	8234.34
659.76	6357.87
661.689	6108.07
663.619	6139.26
665.548	6972.04
667.477	7169.76
669.406	6565.39
671.335	6035.96
673.264	6332.89
675.193	6392.71
677.122	6547.2
679.052	6671
680.981	5861.36
682.91	5716.92
684.839	7496.11
686.768	8693.22
688.697	9326.41
690.626	9183.07
692.555	9316.09
694.485	8650.27
696.414	8450.11
698.343	10805.7
700.272	12294.2
702.201	13983.7
704.13	15776.7
706.059	16232.5
707.988	14666.9
709.917	11560.7
711.847	8735.55
713.776	7914.12
715.705	8486.21
717.634	9995.02
719.563	8675.39
721.492	7073.54
723.421	11079.5
725.35	11421
727.28	10244.5
729.209	9055.26
731.138	8718.76
733.067	9342.3
734.996	8049.48
736.925	5444.15
738.854	6441.85
740.783	7149.33
742.713	9305.68
744.642	10364.6
746.571	8469.59
748.5	8044.13
750.429	8351.79
752.358	9815.19
754.287	9302.97
756.216	8358.12
758.146	6718.65
760.075	6671.61
762.004	9316.93
763.933	7827.06
765.862	6582.28
767.791	5617.64
769.72	5063.69
771.649	7769.92
773.579	9344.95
775.508	9782.03
777.437	7665.41
779.366	6948.17
781.295	8609.65
783.224	8794.79
785.153	10131
787.082	11294.5
789.012	10667.7
790.941	8524.31
792.87	6637.1
794.799	5822.57
796.728	7346.4
798.657	7908
800.586	8035.84
802.515	8278.54
804.445	7772.03
806.374	9766.36
808.303	9874.84
810.232	8328
812.161	9350.56
814.09	10447.9
816.019	11396.3
817.948	14352.1
819.878	15775.9
821.807	14483
823.736	12150.1
825.665	10793.8
827.594	9279.45
829.523	9760.82
831.452	10213.8
833.381	11042.5
835.311	11354.2
837.24	10802
839.169	9704.87
841.098	9715.68
843.027	8379.82
844.956	7651.1
846.885	8212.32
848.814	8790.63
850.744	8585.48
852.673	9219.8
854.602	9940.48
856.531	10525
858.46	9938.68
860.389	10103.5
862.318	10861.8
864.247	9465.17
866.177	7248.65
868.106	5338.72
870.035	6705.47
871.964	8469.28
873.893	8584.25
875.822	9662.22
877.751	10044.9
879.68	8569.06
881.609	9608.54
883.539	9642.24
885.468	9946.22
887.397	9362.26
889.326	8797.19
891.255	9143.88
893.184	8714.19
895.113	8411.19
897.042	9251.81
898.972	8484.58
900.901	8457.8
902.83	10015.5
904.759	10295.4
906.688	9795.44
908.617	11968.7
910.546	12402.6
912.475	10816.3
914.405	10184.6
916.334	9217.03
918.263	9180.69
920.192	10599.8
922.121	9594.43
924.05	8913.12
925.979	9239.35
927.908	9869.45
929.838	8991.8
931.767	11503.7
933.696	12833.2
935.625	13757.6
937.554	13063.9
939.483	10163.2
941.412	8879.33
943.341	9865.98
945.271	11215.3
947.2	11227.4
949.129	11121.7
951.058	9080.45
952.987	8508.59
954.916	9741.97
956.845	9245.27
958.774	8776.78
960.704	9100.91
962.633	8563.09
964.562	10239.5
966.491	11129
968.42	9809.07
970.349	9274.86
972.278	10517.7
974.207	11372.4
976.137	9181.91
978.066	10409.1
979.995	12986.2
981.924	12744.3
983.853	13285.2
985.782	11874.4
987.711	8349.35
989.64	5655.94
991.57	6584.64
993.499	9007.96
995.428	10316.1
997.357	11861.1
999.286	12564.7
1001.22	14133.6
1003.14	15209.6
1005.07	13751
1007	11721.6
1008.93	12404.1
1010.86	13917.1
1012.79	13884.8
1014.72	11699.3
1016.65	10220.5
1018.58	10054.4
1020.51	12712.4
1022.44	13735.3
1024.36	12728.9
1026.29	11926.3
1028.22	10226
1030.15	9820.91
1032.08	9124.18
1034.01	10840.8
1035.94	12122.7
1037.87	13541.1
1039.8	11469.9
1041.73	10433.1
1043.66	10277.4
1045.58	12253.6
1047.51	12822.8
1049.44	11281.1
1051.37	8680.26
1053.3	6977.54
1055.23	8373.89
1057.16	10257.2
1059.09	10710.5
1061.02	10866.2
1062.95	11834.2
1064.88	12933.8
1066.81	13044.9
1068.73	13097.5
1070.66	12273.6
1072.59	9542.32
1074.52	7420.2
1076.45	7706.99
1078.38	10111.2
1080.31	11622.9
1082.24	11589.1
1084.17	11376.5
1086.1	10772.5
1088.03	10627.2
1089.95	11083.8
1091.88	12008.9
1093.81	13772.4
1095.74	15074
1097.67	14731.1
1099.6	13955.9
1101.53	15119.5
1103.46	14645.9
1105.39	13697.4
1107.32	11729.7
1109.25	10974.6
1111.18	11293
1113.1	10098.5
1115.03	8679.2
1116.96	9888.57
1118.89	13186.7
1120.82	13133.4
1122.75	10560.5
1124.68	11290
1126.61	12356.2
1128.54	10763.8
1130.47	10950.8
1132.4	12193.9
1134.32	13056.6
1136.25	13664.3
1138.18	11841.4
1140.11	11262.3
1142.04	11878.7
1143.97	9927.26
1145.9	8182.16
1147.83	9585.88
1149.76	9579.12
1151.69	11184.2
1153.62	12720.7
1155.55	12936.9
1157.47	13257.4
1159.4	14646.2
1161.33	17018.7
1163.26	18194.4
1165.19	15736.2
1167.12	13636.9
1169.05	12048
1170.98	10502
1172.91	9959.17
1174.84	11852.3
1176.77	13226.7
1178.69	13180.7
1180.62	13274.1
1182.55	12522
1184.48	10776.7
1186.41	8688.76
1188.34	9554.97
1190.27	10435
1192.2	11741.3
1194.13	11777
1196.06	12014.7
1197.99	11196
1199.91	13023.2
1201.84	13111.7
1203.77	13306.3
1205.7	11551.7
1207.63	10729.4
1209.56	10507.1
1211.49	9168.64
1213.42	9456.68
1215.35	10653
1217.28	11140.2
1219.21	12238.5
1221.14	12891.7
1223.06	15268.8
1224.99	15532
1226.92	14375.9
1228.85	14989
1230.78	15793.5
1232.71	13341.4
1234.64	8623.32
1236.57	6179.59
1238.5	5038.56
1240.43	6290.48
1242.36	8852.18
1244.28	9510.29
1246.21	9030.07
1248.14	12420
1250.07	13683.3
1252	13010.3
1253.93	10803
1255.86	9467.2
1257.79	9535.51
1259.72	9486.87
1261.65	8768.87
1263.58	7842.92
1265.51	7624.87
1267.43	8304.06
1269.36	11929.4
1271.29	10974.3
1273.22	8842.24
1275.15	11898.8
1277.08	13469.3
1279.01	11327.9
1280.94	8059.98
1282.87	9093.4
1284.8	11558.8
1286.73	13327.5
1288.65	12414.8
1290.58	11812.9
1292.51	11470.8
1294.44	8524.49
1296.37	9081.11
1298.3	12787.2
1300.23	15311.5
1302.16	15843
1304.09	15279.7
1306.02	12933.4
1307.95	8907.93
1309.87	9554.83
1311.8	11536.7
1313.73	13419.5
1315.66	15397.7
1317.59	15997.1
1319.52	15619
1321.45	14395.1
1323.38	11137.3
1325.31	6581.13
1327.24	7772.63
1329.17	7250.87
1331.1	7328.12
1333.02	8840.12
1334.95	11356.3
1336.88	10233.3
1338.81	7041.53
1340.74	7415.41
1342.67	6175.72
1344.6	8319.85
1346.53	12273.4
1348.46	12545.4
1350.39	11816.4
1352.32	12083.3
1354.24	12003.6
1356.17	12988.6
1358.1	14984
1360.03	15828.1
1361.96	14623.8
1363.89	12529.1
1365.82	12351.2
1367.75	13813.7
1369.68	15021.6
1371.61	14408.3
1373.54	13358.1
1375.47	11733.8
1377.39	10603.4
1379.32	11376.4
1381.25	13214.3
1383.18	14528.5
1385.11	13461
1387.04	12910.4
1388.97	12313.6
1390.9	11585.5
1392.83	12340.5
1394.76	13597.3
1396.69	13606.1
1398.61	13281.5
1400.54	12700
1402.47	10166.5
1404.4	7539.72
1406.33	7380.52
1408.26	8657.55
1410.19	11120.4
1412.12	11577.5
1414.05	8048.46
1415.98	5844.12
1417.91	8534.13
1419.83	10156.2
1421.76	10780.1
1423.69	10621.7
1425.62	8720.79
1427.55	8454.26
1429.48	9440.1
1431.41	9821.04
1433.34	10983.4
1435.27	12091.1
1437.2	11875
1439.13	10501.8
1441.06	9218.37
1442.98	10936.2
1444.91	13673.7
1446.84	11859.2
1448.77	8215.66
1450.7	7269.17
1452.63	8147.94
1454.56	8296.47
1456.49	8457.24
1458.42	7573.65
1460.35	8759.18
1462.28	10237.9
1464.2	11851.2
1466.13	11225.8
1468.06	9026.52
1469.99	7535.34
1471.92	8808.91
1473.85	10813.4
1475.78	11924.5
1477.71	10402.7
1479.64	11446.7
1481.57	12105.7
1483.5	11491.6
1485.43	12069
1487.35	11626.6
1489.28	10895.1
1491.21	8861.91
1493.14	10439.1
1495.07	11248.7
1497	11822.4
1498.93	13757.2
1500.86	15761.1
1502.79	15464.1
1504.72	10851.5
1506.65	6091.96
1508.57	7839.06
1510.5	11479.5
1512.43	14583.8
1514.36	16638.4
1516.29	15872.2
1518.22	15371.6
1520.15	13471.2
1522.08	11208
1524.01	9466.12
1525.94	8764.26
1527.87	8047.78
1529.8	8629.83
1531.72	10208.4
1533.65	10818.3
1535.58	11249
1537.51	12206.4
1539.44	13577.7
1541.37	16029.5
1543.3	14731.4
1545.23	11761.8
1547.16	9592.21
1549.09	9963.9
1551.02	8796.06
1552.94	12577.7
1554.87	12184.7
1556.8	10886.4
1558.73	10340.7
1560.66	11200.6
1562.59	11736
1564.52	14383.8
1566.45	15018.4
1568.38	13215.9
1570.31	11880.9
1572.24	12428.1
1574.16	12144.9
1576.09	8809.64
1578.02	10048.6
1579.95	11731.4
1581.88	13680.3
1583.81	15818.6
1585.74	17704.6
1587.67	13826.9
1589.6	8780.88
1591.53	9957.5
1593.46	10786.9
1595.39	10048.4
1597.31	9404.3
1599.24	9994.71
1601.17	10157.6
1603.1	11334.4
1605.03	14132
1606.96	16086
1608.89	15813.4
1610.82	14405.4
1612.75	15350
1614.68	14222.2
1616.61	10702
1618.53	8161.76
1620.46	7177.24
1622.39	6924.96
1624.32	9767.41
1626.25	12677.4
1628.18	13056.6
1630.11	12548.1
1632.04	11953.6
1633.97	12026.6
1635.9	9519.27
1637.83	10519
1639.76	12244.3
1641.68	12943.2
1643.61	11267.7
1645.54	11259.9
1647.47	10307.4
1649.4	10617.1
1651.33	11513.3
1653.26	12386.5
1655.19	13243.1
1657.12	13703.4
1659.05	12535.6
1660.98	10253.4
1662.9	8770.25
1664.83	6319.2
1666.76	8372.84
1668.69	14195.6
1670.62	17511.6
1672.55	15450.5
1674.48	9089.27
1676.41	6279.04
1678.34	8471.09
1680.27	8962.49
1682.2	10437.8
1684.12	10742.2
1686.05	14041
1687.98	16247.6
1689.91	15326.2
1691.84	12925.9
1693.77	11090.5
1695.7	12459.9
1697.63	13775.8
1699.56	14340.4
1701.49	13244.9
1703.42	10859.3
1705.35	10148.9
1707.27	11242.3
1709.2	11687
1711.13	12942.1
1713.06	13278.2
1714.99	13143.8
1716.92	14531.8
1718.85	16611.4
1720.78	16161.5
1722.71	15561.2
1724.64	15958.9
1726.57	13132.5
1728.49	9038.29
1730.42	7116.29
1732.35	8703.09
1734.28	10230.5
1736.21	10644
1738.14	10309.8
1740.07	9632.12
1742	9687.05
1743.93	9985.74
1745.86	12255.1
1747.79	14580
1749.72	13939.8
1751.64	11424.1
1753.57	12912.1
1755.5	13582.1
1757.43	12817.4
1759.36	12745
1761.29	12442.5
1763.22	11797.3
1765.15	13120.9
1767.08	13356.6
1769.01	11990.5
1770.94	10669.9
1772.86	10732.8
1774.79	13070.9
1776.72	12049.9
1778.65	12556.4
1780.58	11650.5
1782.51	9167.95
1784.44	11127
1786.37	13612.2
1788.3	13506
1790.23	11215.1
1792.16	11699
1794.08	12919.9
1796.01	13689.9
1797.94	12260.2
1799.87	10467.5
1801.8	8744.55
1803.73	10810.5
1805.66	12336.3
1807.59	12106.2
1809.52	10850.8
1811.45	11659.2
1813.38	14336.3
1815.31	13313.4
1817.23	9627.03
1819.16	6768.41
1821.09	7437.79
1823.02	10539
1824.95	12525
1826.88	12534.3
1828.81	12124.8
1830.74	11985.8
1832.67	10174.2
1834.6	11796.9
1836.53	15114.4
1838.45	16646.5
1840.38	14874.8
1842.31	8992.53
1844.24	4355.53
1846.17	4258.88
1848.1	6861.88
1850.03	10179
1851.96	12418.4
1853.89	14113.1
1855.82	15328.8
1857.75	13391.9
1859.68	10704.9
1861.6	7874.38
1863.53	7300.91
1865.46	8436.47
1867.39	7720.74
1869.32	5279.95
1871.25	4555.32
1873.18	7989.16
1875.11	8343.71
1877.04	8433.41
1878.97	10703.8
1880.9	12896.3
1882.82	13175.1
1884.75	11311.3
1886.68	8320.08
1888.61	6058.62
1890.54	5032.17
1892.47	7344.98
1894.4	8840.64
1896.33	10141.3
1898.26	12182.2
1900.19	11547.3
1902.12	8961.52
1904.05	7530.28
1905.97	10212.4
1907.9	13036.3
1909.83	14010.5
1911.76	11801.7
1913.69	9767.62
1915.62	7396.97
1917.55	7944.69
1919.48	8414.93
1921.41	7865.16
1923.34	9003.34
1925.27	12524.1
1927.19	15443.7
1929.12	13953.5
1931.05	12649.5
1932.98	12641
1934.91	13566.2
1936.84	11434.4
1938.77	8750.34
1940.7	10534.7
1942.63	14324.6
1944.56	14956.3
1946.49	12065.2
1948.41	9435.97
1950.34	10189.2
1952.27	10235.7
1954.2	9170.78
1956.13	8903.48
1958.06	10841.9
1959.99	15427.1
1961.92	16574.7
1963.85	14849.1
1965.78	12769.3
1967.71	10782.6
1969.64	10579.5
1971.56	10384.8
1973.49	10072.5
1975.42	10691.1
1977.35	10734.8
1979.28	10569.9
1981.21	11790.8
1983.14	12227.2
1985.07	13769.9
1987	13305.7
1988.93	11282.9
1990.86	11582.4
1992.78	13865.6
1994.71	15953.6
1996.64	14768.2
1998.57	14779.3
2000.5	15856.9
2002.43	14706.7
2004.36	13287
2006.29	10726.1
2008.22	8012.84
2010.15	10153.5
2012.08	11231.4
2014.01	8436.42
2015.93	10148.2
2017.86	11083.2
2019.79	10262
2021.72	9177.94
2023.65	9601.12
2025.58	11545.2
2027.51	15269.1
2029.44	18120.1
2031.37	17457.4
2033.3	16177.5
2035.23	15557.9
2037.15	13182.5
2039.08	11564.3
2041.01	11611.6
2042.94	14546.1
2044.87	14473.8
2046.8	14860.3
2048.73	19701.9
2050.66	22584.1
2052.59	21253.1
2054.52	14888.3
2056.45	7159.91
2058.37	8873.54
2060.3	10250.6
2062.23	13448.2
2064.16	16005.5
2066.09	15598.8
2068.02	15282.4
2069.95	12926
2071.88	12866.6
2073.81	15614.9
2075.74	19599.8
2077.67	20752.8
2079.6	18063.5
2081.52	13706.8
2083.45	12063.7
2085.38	12899.4
2087.31	13219.1
2089.24	13547
2091.17	11553.8
2093.1	8779.34
2095.03	6866.09
2096.96	13057.2
2098.89	16371.4
2100.82	19738.9
2102.74	24256.7
2104.67	33499.6
2106.6	42157.4
2108.53	50791.3
2110.46	61121.9
2112.39	73989.7
2114.32	89161.6
2116.25	106216
2118.18	125080
2120.11	146117
2122.04	169843
2123.97	195999
2125.89	222847
2127.82	248306
2129.75	272139
2131.68	296186
2133.61	322081
2135.54	349591
2137.47	377680
2139.4	406096
2141.33	434959
2143.26	463605
2145.19	491086
2147.11	517511
2149.04	543838
2150.97	570534
2152.9	597335
2154.83	623957
2156.76	649880
2158.69	673627
2160.62	693795
2162.55	711307
2164.48	729348
2166.41	750151
2168.33	772443
2170.26	792739
2172.19	808578
2174.12	819869
2176.05	827861
2177.98	833847
2179.91	838579
2181.84	841920
2183.77	843096
2185.7	842052
2187.63	840328
2189.56	839495
2191.48	838663
2193.41	834866
2195.34	826562
2197.27	815699
2199.2	805271
2201.13	795567
2203.06	784224
2204.99	769887
2206.92	754401
2208.85	740638
2210.78	728904
2212.7	716519
2214.63	700938
2216.56	682522
2218.49	663805
2220.42	646615
2222.35	630794
2224.28	615760
2226.21	602048
2228.14	590247
2230.07	579073
2232	566148
2233.93	551015
2235.85	536078
2237.78	523811
2239.71	514046
2241.64	504943
2243.57	495763
2245.5	487366
2247.43	480399
2249.36	474523
2251.29	469741
2253.22	467274
2255.15	468184
2257.07	471546
2259	474855
2260.93	476645
2262.86	478408
2264.79	483269
2266.72	492374
2268.65	503176
2270.58	512120
2272.51	518804
2274.44	526375
2276.37	537797
2278.29	553109
2280.22	570821
2282.15	590349
2284.08	611668
2286.01	633498
2287.94	653559
2289.87	670779
2291.8	686447
2293.73	703168
2295.66	722939
2297.59	745528
2299.52	768012
2301.44	786541
2303.37	799514
2305.3	808910
2307.23	817949
2309.16	827753
2311.09	836572
2313.02	841678
2314.95	841602
2316.88	837221
2318.81	831255
2320.74	826378
2322.66	823601
2324.59	822675
2326.52	823364
2328.45	825636
2330.38	829952
2332.31	838732
2334.24	855005
2336.17	876711
2338.1	896760
2340.03	916892
2341.96	958912
2343.89	1.04671e+006
2345.81	1.16785e+006
2347.74	1.26376e+006
2349.67	1.27455e+006
2351.6	1.19539e+006
2353.53	1.0796e+006
2355.46	987143
2357.39	940568
2359.32	930272
2361.25	944930
2363.18	984056
2365.11	1.04936e+006
2367.03	1.13936e+006
2368.96	1.25441e+006
2370.89	1.39869e+006
2372.82	1.57409e+006
2374.75	1.77607e+006
2376.68	1.99555e+006
2378.61	2.22029e+006
2380.54	2.43359e+006
2382.47	2.61723e+006
2384.4	2.7601e+006
2386.33	2.86365e+006
2388.26	2.9382e+006
2390.18	2.99499e+006
2392.11	3.04184e+006
2394.04	3.08336e+006
2395.97	3.12258e+006
2397.9	3.16168e+006
2399.83	3.20163e+006
2401.76	3.24184e+006
2403.69	3.28107e+006
2405.62	3.31934e+006
2407.55	3.35823e+006
2409.48	3.39881e+006
2411.4	3.44033e+006
2413.33	3.48207e+006
2415.26	3.52522e+006
2417.19	3.57153e+006
2419.12	3.62078e+006
2421.05	3.6712e+006
2422.98	3.72172e+006
2424.91	3.77225e+006
2426.84	3.82254e+006
2428.77	3.87238e+006
2430.7	3.92276e+006
2432.62	3.97473e+006
2434.55	4.02741e+006
2436.48	4.07906e+006
2438.41	4.12997e+006
2440.34	4.18233e+006
2442.27	4.23697e+006
2444.2	4.2924e+006
2446.13	4.34758e+006
2448.06	4.40345e+006
2449.99	4.4605e+006
2451.92	4.51686e+006
2453.85	4.57037e+006
2455.77	4.62165e+006
2457.7	4.67325e+006
2459.63	4.72633e+006
2461.56	4.7796e+006
2463.49	4.83149e+006
2465.42	4.88192e+006
2467.35	4.93187e+006
2469.28	4.98193e+006
2471.21	5.03169e+006
2473.14	5.08027e+006
2475.07	5.12744e+006
2476.99	5.174e+006
2478.92	5.2207e+006
2480.85	5.26647e+006
2482.78	5.3086e+006
2484.71	5.34523e+006
2486.64	5.37729e+006
2488.57	5.40757e+006
2490.5	5.43849e+006
2492.43	5.471e+006
2494.36	5.50484e+006
2496.29	5.53879e+006
2498.22	5.5709e+006
2500.14	5.59962e+006
2502.07	5.62495e+006
2504	5.6482e+006
2505.93	5.6708e+006
2507.86	5.69349e+006
2509.79	5.7162e+006
2511.72	5.73807e+006
2513.65	5.75772e+006
2515.58	5.77423e+006
2517.51	5.78779e+006
2519.44	5.79927e+006
2521.36	5.80969e+006
2523.29	5.82041e+006
2525.22	5.83265e+006
2527.15	5.84577e+006
2529.08	5.8569e+006
2531.01	5.86374e+006
2532.94	5.86749e+006
2534.87	5.87143e+006
2536.8	5.87701e+006
2538.73	5.88297e+006
2540.66	5.88838e+006
2542.58	5.89419e+006
2544.51	5.90084e+006
2546.44	5.90649e+006
2548.37	5.90915e+006
2550.3	5.90958e+006
2552.23	5.91037e+006
2554.16	5.91268e+006
2556.09	5.91541e+006
2558.02	5.91728e+006
2559.95	5.91822e+006
2561.88	5.91854e+006
2563.81	5.91815e+006
2565.73	5.91699e+006
2567.66	5.91559e+006
2569.59	5.91446e+006
2571.52	5.91335e+006
2573.45	5.9115e+006
2575.38	5.90863e+006
2577.31	5.90557e+006
2579.24	5.90353e+006
2581.17	5.90253e+006
2583.1	5.90078e+006
2585.03	5.89627e+006
2586.95	5.8892e+006
2588.88	5.88195e+006
2590.81	5.8764e+006
2592.74	5.87217e+006
2594.67	5.86789e+006
2596.6	5.86299e+006
2598.53	5.85711e+006
2600.46	5.84905e+006
2602.39	5.83808e+006
2604.32	5.8261e+006
2606.25	5.81635e+006
2608.18	5.80973e+006
2610.1	5.80381e+006
2612.03	5.79594e+006
2613.96	5.78589e+006
2615.89	5.77486e+006
2617.82	5.76342e+006
2619.75	5.75152e+006
2621.68	5.73976e+006
2623.61	5.72901e+006
2625.54	5.71912e+006
2627.47	5.70915e+006
2629.4	5.69859e+006
2631.32	5.68784e+006
2633.25	5.67743e+006
2635.18	5.66759e+006
2637.11	5.65821e+006
2639.04	5.6487e+006
2640.97	5.63848e+006
2642.9	5.62854e+006
2644.83	5.62202e+006
2646.76	5.62151e+006
2648.69	5.62571e+006
2650.62	5.63006e+006
2652.54	5.63156e+006
2654.47	5.63145e+006
2656.4	5.63268e+006
2658.33	5.6359e+006
2660.26	5.6398e+006
2662.19	5.64407e+006
2664.12	5.65019e+006
2666.05	5.65882e+006
2667.98	5.66843e+006
2669.91	5.67732e+006
2671.84	5.68602e+006
2673.77	5.69658e+006
2675.69	5.71042e+006
2677.62	5.72775e+006
2679.55	5.74862e+006
2681.48	5.77305e+006
2683.41	5.79995e+006
2685.34	5.82709e+006
2687.27	5.85284e+006
2689.2	5.87769e+006
2691.13	5.90362e+006
2693.06	5.93219e+006
2694.99	5.9637e+006
2696.91	5.99758e+006
2698.84	6.03289e+006
2700.77	6.06838e+006
2702.7	6.10301e+006
2704.63	6.13678e+006
2706.56	6.17077e+006
2708.49	6.2058e+006
2710.42	6.24132e+006
2712.35	6.27621e+006
2714.28	6.31055e+006
2716.21	6.34572e+006
2718.14	6.38285e+006
2720.06	6.42173e+006
2721.99	6.46144e+006
2723.92	6.50097e+006
2725.85	6.53888e+006
2727.78	6.57356e+006
2729.71	6.60513e+006
2731.64	6.6362e+006
2733.57	6.66927e+006
2735.5	6.70329e+006
2737.43	6.73433e+006
2739.36	6.7604e+006
2741.28	6.78417e+006
2743.21	6.81023e+006
2745.14	6.84026e+006
2747.07	6.87167e+006
2749	6.90048e+006
2750.93	6.92465e+006
2752.86	6.94494e+006
2754.79	6.96353e+006
2756.72	6.98206e+006
2758.65	7.00076e+006
2760.58	7.01909e+006
2762.51	7.0368e+006
2764.43	7.0539e+006
2766.36	7.0698e+006
2768.29	7.08374e+006
2770.22	7.09627e+006
2772.15	7.10922e+006
2774.08	7.12314e+006
2776.01	7.13596e+006
2777.94	7.14542e+006
2779.87	7.1523e+006
2781.8	7.15992e+006
2783.73	7.17036e+006
2785.65	7.18267e+006
2787.58	7.19466e+006
2789.51	7.20505e+006
2791.44	7.2135e+006
2793.37	7.2199e+006
2795.3	7.22496e+006
2797.23	7.23052e+006
2799.16	7.23836e+006
2801.09	7.24868e+006
