##TITLE=2 empty raboc vyshest
##$NOTE=11.03.2023 11:01:3 ^0 x8 v:1
##$ITAB=-1,-1
##FIRSTX=499.643
##DELTAX=1.92912
##NPOINTS=2333
##XUNITS=1/CM
##YUNITS=TRANSMITTANCE
499.643	107.569
501.572	108.097
503.501	79.0144
505.43	83.8752
507.36	93.9775
509.289	136.899
511.218	170.292
513.147	150.08
515.076	105.086
517.005	81.8593
518.934	101.857
520.863	108.498
522.792	128.23
524.722	97.8054
526.651	82.263
528.58	74.4637
530.509	73.029
532.438	106.138
534.367	139.597
536.296	122.7
538.225	88.023
540.155	84.8335
542.084	95.7386
544.013	105.59
545.942	124.915
547.871	206.385
549.8	245.679
551.729	187.303
553.658	173.307
555.588	120.031
557.517	97.392
559.446	71.721
561.375	57.123
563.304	65.0264
565.233	69.6623
567.162	70.1686
569.091	84.803
571.021	87.1572
572.95	88.133
574.879	80.3423
576.808	70.1183
578.737	70.0837
580.666	72.0558
582.595	82.0405
584.524	89.4885
586.454	90.7839
588.383	91.046
590.312	75.5257
592.241	79.1804
594.17	138.59
596.099	128.374
598.028	90.403
599.957	78.1134
601.887	73.0555
603.816	81.5837
605.745	83.034
607.674	92.5977
609.603	86.341
611.532	119.146
613.461	143.491
615.39	148.456
617.32	146.204
619.249	109.837
621.178	93.9552
623.107	106.224
625.036	114.619
626.965	101.353
628.894	65.8542
630.823	49.7378
632.753	63.6194
634.682	96.6719
636.611	129.574
638.54	115.962
640.469	90.5916
642.398	125.877
644.327	184.864
646.256	162.871
648.186	106.532
650.115	68.4185
652.044	46.6541
653.973	50.6643
655.902	48.2561
657.831	59.3729
659.76	74.8827
661.689	120.393
663.619	155.338
665.548	136.639
667.477	100.972
669.406	82.0592
671.335	86.7514
673.264	75.7138
675.193	89.8111
677.122	95.5031
679.052	85.185
680.981	87.2955
682.91	101.012
684.839	105.344
686.768	130.064
688.697	154.311
690.626	162.769
692.555	138.339
694.485	128.378
696.414	126.68
698.343	97.8304
700.272	91.7796
702.201	82.3246
704.13	55.8681
706.059	56.4047
707.988	69.4451
709.917	83.4672
711.847	101.015
713.776	116.4
715.705	92.5548
717.634	79.5309
719.563	98.4372
721.492	162.564
723.421	117.463
725.35	113.377
727.28	116.511
729.209	116.058
731.138	116.161
733.067	97.7905
734.996	124.1
736.925	199.997
738.854	164.289
740.783	172.369
742.713	153.598
744.642	137.561
746.571	148.78
748.5	150.234
750.429	134.896
752.358	103.064
754.287	90.4219
756.216	84.448
758.146	105.844
760.075	90.2324
762.004	57.833
763.933	83.3134
765.862	118.636
767.791	164.081
769.72	161.279
771.649	74.3868
773.579	79.589
775.508	112.146
777.437	161.355
779.366	164.936
781.295	123.915
783.224	123.214
785.153	122.043
787.082	98.9112
789.012	90.8577
790.941	109.301
792.87	174.335
794.799	223.604
796.728	173.66
798.657	155.035
800.586	158.003
802.515	170.176
804.445	197.897
806.374	155.871
808.303	129.59
810.232	122.255
812.161	76.8217
814.09	60.6843
816.019	52.2613
817.948	50.8224
819.878	59.6535
821.807	59.9021
823.736	79.7203
825.665	77.47
827.594	69.1197
829.523	91.8797
831.452	107.077
833.381	90.1807
835.311	67.1485
837.24	64.653
839.169	77.5679
841.098	106.014
843.027	155.204
844.956	165.41
846.885	137.954
848.814	144.636
850.744	170.798
852.673	161.882
854.602	129.57
856.531	103.768
858.46	124.924
860.389	125.694
862.318	91.293
864.247	74.1042
866.177	86.6266
868.106	148.829
870.035	106.17
871.964	72.8394
873.893	68.4047
875.822	62.4577
877.751	55.4698
879.68	95.369
881.609	129.728
883.539	129.996
885.468	93.4121
887.397	65.4691
889.326	57.5483
891.255	63.3239
893.184	73.0218
895.113	86.889
897.042	85.1634
898.972	101.527
900.901	157.898
902.83	169.387
904.759	177.356
906.688	157.159
908.617	89.3955
910.546	72.8824
912.475	98.7598
914.405	105.554
916.334	123.623
918.263	135.975
920.192	95.7705
922.121	78.2094
924.05	68.1812
925.979	77.3895
927.908	94.6195
929.838	127.076
931.767	96.9411
933.696	63.299
935.625	56.2366
937.554	60.2213
939.483	77.1077
941.412	81.453
943.341	60.4667
945.271	74.8192
947.2	88.51
949.129	85.5332
951.058	93.719
952.987	84.2473
954.916	72.5852
956.845	79.7659
958.774	87.4461
960.704	98.4102
962.633	111.348
964.562	72.1545
966.491	62.3469
968.42	61.9154
970.349	104.719
972.278	111.391
974.207	89.6888
976.137	103.386
978.066	76.5869
979.995	58.3358
981.924	67.1253
983.853	80.3437
985.782	93.6937
987.711	151.543
989.64	247.697
991.57	207.368
993.499	138.219
995.428	97.3815
997.357	76.7418
999.286	66.4383
1001.22	49.157
1003.14	54.0145
1005.07	59.705
1007	62.6518
1008.93	49.1323
1010.86	44.6597
1012.79	54.871
1014.72	103.416
1016.65	149.917
1018.58	141.046
1020.51	81.4701
1022.44	69.7649
1024.36	72.1034
1026.29	77.0423
1028.22	104.695
1030.15	94.7121
1032.08	85.6797
1034.01	64.9021
1035.94	69.7926
1037.87	61.6834
1039.8	91.4479
1041.73	118.187
1043.66	122.33
1045.58	82.2952
1047.51	71.3816
1049.44	72.4969
1051.37	74.501
1053.3	88.8807
1055.23	88.7716
1057.16	81.2627
1059.09	84.8005
1061.02	96.4797
1062.95	104.247
1064.88	109.977
1066.81	117.077
1068.73	114.8
1070.66	110.869
1072.59	122.595
1074.52	136.903
1076.45	123.851
1078.38	89.9612
1080.31	63.7993
1082.24	46.9452
1084.17	48.2377
1086.1	77.0424
1088.03	92.7186
1089.95	99.7481
1091.88	116.869
1093.81	117.886
1095.74	114.596
1097.67	120.677
1099.6	123.056
1101.53	112.055
1103.46	115.552
1105.39	128.603
1107.32	138.682
1109.25	121.462
1111.18	103.565
1113.1	98.5074
1115.03	98.8452
1116.96	134.967
1118.89	115.819
1120.82	98.4918
1122.75	111.65
1124.68	114.308
1126.61	106.136
1128.54	117.426
1130.47	117.709
1132.4	106.495
1134.32	117.225
1136.25	115.22
1138.18	121.214
1140.11	100.2
1142.04	71.7878
1143.97	85.9426
1145.9	111.803
1147.83	110.085
1149.76	117.354
1151.69	108.041
1153.62	112.907
1155.55	102.948
1157.47	87.6427
1159.4	86.2393
1161.33	70.151
1163.26	62.6844
1165.19	81.7264
1167.12	95.2662
1169.05	99.7165
1170.98	96.6958
1172.91	80.0496
1174.84	68.1167
1176.77	89.7676
1178.69	102.724
1180.62	95.7286
1182.55	81.4142
1184.48	68.3421
1186.41	73.0228
1188.34	96.8757
1190.27	108.433
1192.2	89.9481
1194.13	95.7244
1196.06	95.0674
1197.99	96.4961
1199.91	76.144
1201.84	69.9774
1203.77	59.0133
1205.7	67.6064
1207.63	67.5761
1209.56	59.3143
1211.49	68.6664
1213.42	104.137
1215.35	89.9203
1217.28	76.4723
1219.21	83.2991
1221.14	86.0972
1223.06	64.5108
1224.99	58.0776
1226.92	58.8574
1228.85	58.4872
1230.78	45.7076
1232.71	50.2036
1234.64	80.0829
1236.57	107.384
1238.5	111.462
1240.43	133.335
1242.36	140.14
1244.28	167.049
1246.21	188.898
1248.14	126.827
1250.07	88.4466
1252	65.6652
1253.93	68.7068
1255.86	71.8314
1257.79	68.3156
1259.72	74.9734
1261.65	77.7709
1263.58	107.043
1265.51	106.399
1267.43	65.7342
1269.36	27.3327
1271.29	40.705
1273.22	72.6776
1275.15	65.8323
1277.08	47.9702
1279.01	64.452
1280.94	124.597
1282.87	120.495
1284.8	89.426
1286.73	76.2484
1288.65	92.6721
1290.58	96.9357
1292.51	107.868
1294.44	146.048
1296.37	136.237
1298.3	94.8095
1300.23	65.5955
1302.16	64.3127
1304.09	74.0341
1306.02	75.5282
1307.95	115.768
1309.87	150.845
1311.8	123.294
1313.73	77.3514
1315.66	58.8855
1317.59	47.1833
1319.52	54.3816
1321.45	63.7279
1323.38	83.0333
1325.31	173.038
1327.24	147.963
1329.17	173.431
1331.1	186.191
1333.02	141.263
1334.95	118.787
1336.88	180.357
1338.81	282
1340.74	226.054
1342.67	226.769
1344.6	189.315
1346.53	131.638
1348.46	128.849
1350.39	117.529
1352.32	90.6983
1354.24	75.0076
1356.17	61.6953
1358.1	58.4616
1360.03	44.8138
1361.96	54.0236
1363.89	94.7387
1365.82	111.781
1367.75	95.847
1369.68	84.23
1371.61	79.3435
1373.54	84.5872
1375.47	108.704
1377.39	134.963
1379.32	129.775
1381.25	115.102
1383.18	108.843
1385.11	98.593
1387.04	77.8979
1388.97	75.0845
1390.9	55.1416
1392.83	40.4044
1394.76	41.1895
1396.69	38.4956
1398.61	55.1573
1400.54	83.5995
1402.47	92.4071
1404.4	108.88
1406.33	135.338
1408.26	125.084
1410.19	88.2799
1412.12	68.9879
1414.05	107.076
1415.98	167.912
1417.91	109.852
1419.83	92.1026
1421.76	100.211
1423.69	105.118
1425.62	140.78
1427.55	180.212
1429.48	184.941
1431.41	181.781
1433.34	151.299
1435.27	115.651
1437.2	109.747
1439.13	122.015
1441.06	110.234
1442.98	70.6322
1444.91	65.8746
1446.84	83.9193
1448.77	106.899
1450.7	123.916
1452.63	144.301
1454.56	148.268
1456.49	119.551
1458.42	126.798
1460.35	101.336
1462.28	80.6047
1464.2	71.7638
1466.13	82.5288
1468.06	108.828
1469.99	178.146
1471.92	182.239
1473.85	157.129
1475.78	141.361
1477.71	148.304
1479.64	111.017
1481.57	90.9602
1483.5	74.5346
1485.43	68.9809
1487.35	83.0752
1489.28	69.4703
1491.21	70.898
1493.14	65.6505
1495.07	78.5012
1497	68.8323
1498.93	52.8396
1500.86	55.2432
1502.79	72.0774
1504.72	94.4924
1506.65	103.19
1508.57	91.5391
1510.5	76.9232
1512.43	61.8376
1514.36	50.7372
1516.29	63.8267
1518.22	77.1388
1520.15	91.214
1522.08	97.9162
1524.01	101.4
1525.94	107.622
1527.87	125.624
1529.8	125.018
1531.72	112.083
1533.65	110.886
1535.58	102.024
1537.51	82.3913
1539.44	48.0843
1541.37	29.9426
1543.3	48.9816
1545.23	87.6457
1547.16	129.979
1549.09	120.363
1551.02	126
1552.94	68.2795
1554.87	54.6407
1556.8	64.9478
1558.73	80.0992
1560.66	82.9798
1562.59	76.0347
1564.52	59.6207
1566.45	62.9959
1568.38	89.6669
1570.31	121.977
1572.24	121.611
1574.16	117.831
1576.09	144.845
1578.02	123.085
1579.95	87.0179
1581.88	73.0659
1583.81	59.3908
1585.74	41.0528
1587.67	47.5416
1589.6	82.673
1591.53	82.7195
1593.46	71.3901
1595.39	81.6786
1597.31	114.544
1599.24	126.945
1601.17	133.617
1603.1	127.882
1605.03	81.5544
1606.96	61.8971
1608.89	64.4419
1610.82	99.2482
1612.75	116.106
1614.68	125.799
1616.61	147.447
1618.53	160.349
1620.46	140.523
1622.39	151.479
1624.32	88.3817
1626.25	32.2582
1628.18	58.3696
1630.11	94.4821
1632.04	110.624
1633.97	114.384
1635.9	126.385
1637.83	115.048
1639.76	104.267
1641.68	89.2189
1643.61	82.5397
1645.54	88.7549
1647.47	115.493
1649.4	111.855
1651.33	98.7571
1653.26	86.6305
1655.19	63.7437
1657.12	71.3389
1659.05	87.6062
1660.98	122.718
1662.9	143.889
1664.83	229.543
1666.76	175.094
1668.69	91.9172
1670.62	78.7335
1672.55	97.381
1674.48	160.58
1676.41	184.494
1678.34	82.6693
1680.27	63.0868
1682.2	59.2379
1684.12	76.9157
1686.05	82.6783
1687.98	83.2611
1689.91	81.6424
1691.84	86.6471
1693.77	87.3169
1695.7	70.3898
1697.63	57.0695
1699.56	51.2484
1701.49	50.4972
1703.42	83.791
1705.35	104.088
1707.27	96.9828
1709.2	84.6333
1711.13	83.655
1713.06	71.72
1714.99	73.925
1716.92	59.5518
1718.85	45.1251
1720.78	61.5252
1722.71	86.883
1724.64	91.494
1726.57	105.484
1728.49	138.021
1730.42	157.436
1732.35	143.245
1734.28	97.3684
1736.21	86.4396
1738.14	91.5862
1740.07	131.063
1742	133.353
1743.93	125.53
1745.86	94.1583
1747.79	80.0886
1749.72	86.0704
1751.64	107.541
1753.57	107.388
1755.5	86.6076
1757.43	52.9324
1759.36	39.5857
1761.29	54.8986
1763.22	73.6636
1765.15	66.2182
1767.08	65.9144
1769.01	80.4195
1770.94	120.699
1772.86	158.978
1774.79	137.476
1776.72	118.692
1778.65	111.327
1780.58	105.977
1782.51	141.822
1784.44	112.175
1786.37	96.6659
1788.3	87.0746
1790.23	100.391
1792.16	103.212
1794.08	94.2798
1796.01	112.981
1797.94	136.512
1799.87	136.808
1801.8	114.047
1803.73	76.4994
1805.66	103.765
1807.59	121.703
1809.52	121.764
1811.45	92.8905
1813.38	70.6049
1815.31	79.9866
1817.23	105.764
1819.16	124.524
1821.09	82.3308
1823.02	35.2064
1824.95	40.8271
1826.88	73.2518
1828.81	102.748
1830.74	114.248
1832.67	110.421
1834.6	71.9151
1836.53	62.0688
1838.45	73.1344
1840.38	82.8768
1842.31	90.1065
1844.24	85.4555
1846.17	112.16
1848.1	91.0508
1850.03	88.2624
1851.96	83.2351
1853.89	64.5989
1855.82	60.463
1857.75	82.7222
1859.68	129.785
1861.6	180.688
1863.53	167.918
1865.46	128.217
1867.39	141.151
1869.32	255.79
1871.25	350.745
1873.18	209.675
1875.11	176.313
1877.04	167.431
1878.97	140.273
1880.9	107.763
1882.82	68.919
1884.75	53.1347
1886.68	68.2295
1888.61	130.02
1890.54	182.147
1892.47	124.82
1894.4	115.459
1896.33	100.986
1898.26	79.4936
1900.19	78.1665
1902.12	100.267
1904.05	113.612
1905.97	91.6106
1907.9	81.8786
1909.83	73.0572
1911.76	64.8642
1913.69	91.2664
1915.62	154.249
1917.55	133.818
1919.48	122.754
1921.41	165.602
1923.34	125.695
1925.27	64.1676
1927.19	34.4173
1929.12	60.9469
1931.05	76.9861
1932.98	79.3165
1934.91	61.8656
1936.84	96.0214
1938.77	143.488
1940.7	120.785
1942.63	115.84
1944.56	104.359
1946.49	117.934
1948.41	120.979
1950.34	90.46
1952.27	94.7915
1954.2	142.953
1956.13	171.362
1958.06	160.712
1959.99	101.472
1961.92	84.9857
1963.85	87.0664
1965.78	92.5945
1967.71	131.155
1969.64	154.931
1971.56	138.27
1973.49	95.5843
1975.42	103.569
1977.35	113.417
1979.28	111.018
1981.21	106.554
1983.14	94.7542
1985.07	78.3615
1987	74.9299
1988.93	93.5092
1990.86	100.375
1992.78	86.0493
1994.71	53.1865
1996.64	63.844
1998.57	81.6636
2000.5	102.469
2002.43	123.295
2004.36	130.316
2006.29	118.523
2008.22	125.73
2010.15	118.195
2012.08	114.574
2014.01	173.002
2015.93	130.17
2017.86	101.649
2019.79	139.417
2021.72	207.822
2023.65	218.486
2025.58	176.853
2027.51	119.164
2029.44	90.5971
2031.37	91.4313
2033.3	114.423
2035.23	131.136
2037.15	152.589
2039.08	158.817
2041.01	142.968
2042.94	114.409
2044.87	101.832
2046.8	88.5565
2048.73	59.0873
2050.66	54.026
2052.59	64.4095
2054.52	106.144
2056.45	230.667
2058.37	199.268
2060.3	188.448
2062.23	148.13
2064.16	104.261
2066.09	90.5914
2068.02	82.7586
2069.95	95.9088
2071.88	103.792
2073.81	92.6247
2075.74	83.5708
2077.67	97.895
2079.6	124.611
2081.52	153.068
2083.45	136.371
2085.38	105.49
2087.31	120.541
2089.24	129.685
2091.17	176.459
2093.1	237.292
2095.03	255.141
2096.96	119.184
2098.89	99.4593
2100.82	81.0093
2102.74	60.6709
2104.67	53.3533
2106.6	62.9942
2108.53	81.5878
2110.46	96.3275
2112.39	100.065
2114.32	99.2197
2116.25	99.9795
2118.18	102.381
2120.11	103.503
2122.04	102.167
2123.97	99.7359
2125.89	97.9584
2127.82	97.4607
2129.75	97.9667
2131.68	98.9377
2133.61	99.8494
2135.54	100.294
2137.47	100.117
2139.4	99.5271
2141.33	99.039
2143.26	99.141
2145.19	99.8814
2147.11	100.772
2149.04	101.197
2150.97	100.992
2152.9	100.544
2154.83	100.304
2156.76	100.372
2158.69	100.629
2160.62	101.025
2162.55	101.494
2164.48	101.688
2166.41	101.177
2168.33	100.026
2170.26	98.923
2172.19	98.5749
2174.12	99.0838
2176.05	99.9543
2177.98	100.615
2179.91	100.876
2181.84	100.953
2183.77	101.172
2185.7	101.608
2187.63	101.986
2189.56	101.969
2191.48	101.612
2193.41	101.357
2195.34	101.5
2197.27	101.798
2199.2	101.759
2201.13	101.282
2203.06	100.778
2204.99	100.656
2206.92	100.891
2208.85	101.115
2210.78	101.018
2212.7	100.593
2214.63	100.085
2216.56	99.7981
2218.49	99.8992
2220.42	100.304
2222.35	100.71
2224.28	100.735
2226.21	100.132
2228.14	99.1146
2230.07	98.4749
2232	99.0113
2233.93	100.594
2235.85	101.989
2237.78	102.011
2239.71	100.833
2241.64	99.6684
2243.57	99.2905
2245.5	99.4751
2247.43	99.7774
2249.36	100.176
2251.29	100.683
2253.22	100.904
2255.15	100.475
2257.07	99.6423
2259	98.9829
2260.93	98.764
2262.86	98.8566
2264.79	99.066
2266.72	99.3285
2268.65	99.7142
2270.58	100.38
2272.51	101.376
2274.44	102.383
2276.37	102.843
2278.29	102.516
2280.22	101.708
2282.15	100.835
2284.08	100.046
2286.01	99.3663
2287.94	98.9282
2289.87	98.8593
2291.8	99.0485
2293.73	99.2208
2295.66	99.2352
2297.59	99.2167
2299.52	99.4231
2301.44	100.021
2303.37	100.877
2305.3	101.503
2307.23	101.393
2309.16	100.63
2311.09	99.9636
2313.02	100.062
2314.95	100.772
2316.88	101.293
2318.81	101.057
2320.74	100.277
2322.66	99.6193
2324.59	99.5244
2326.52	99.9499
2328.45	100.548
2330.38	100.894
2332.31	100.706
2334.24	100.095
2336.17	99.569
2338.1	99.5653
2340.03	100
2341.96	100.363
2343.89	100.313
2345.81	100.077
2347.74	100.003
2349.67	100.111
2351.6	100.169
2353.53	99.9943
2355.46	99.7489
2357.39	99.7934
2359.32	100.077
2361.25	100.159
2363.18	99.9034
2365.11	99.7017
2367.03	99.8694
2368.96	100.218
2370.89	100.383
2372.82	100.292
2374.75	100.146
2376.68	100.103
2378.61	100.142
2380.54	100.17
2382.47	100.127
2384.4	100.009
2386.33	99.8489
2388.26	99.6957
2390.18	99.5873
2392.11	99.5402
2394.04	99.5669
2395.97	99.6757
2397.9	99.8338
2399.83	99.9619
2401.76	100.006
2403.69	99.9933
2405.62	99.9898
2407.55	100.016
2409.48	100.051
2411.4	100.094
2413.33	100.156
2415.26	100.217
2417.19	100.228
2419.12	100.175
2421.05	100.101
2422.98	100.055
2424.91	100.06
2426.84	100.127
2428.77	100.242
2430.7	100.345
2432.62	100.37
2434.55	100.324
2436.48	100.272
2438.41	100.245
2440.34	100.213
2442.27	100.17
2444.2	100.159
2446.13	100.202
2448.06	100.244
2449.99	100.24
2451.92	100.223
2453.85	100.24
2455.77	100.261
2457.7	100.22
2459.63	100.129
2461.56	100.069
2463.49	100.075
2465.42	100.085
2467.35	100.037
2469.28	99.9489
2471.21	99.8887
2473.14	99.8878
2475.07	99.9174
2476.99	99.924
2478.92	99.8782
2480.85	99.805
2482.78	99.7739
2484.71	99.8413
2486.64	99.994
2488.57	100.159
2490.5	100.27
2492.43	100.308
2494.36	100.286
2496.29	100.223
2498.22	100.141
2500.14	100.06
2502.07	99.9863
2504	99.9268
2505.93	99.9082
2507.86	99.953
2509.79	100.029
2511.72	100.064
2513.65	100.031
2515.58	99.9948
2517.51	100.029
2519.44	100.121
2521.36	100.184
2523.29	100.152
2525.22	100.057
2527.15	99.9868
2529.08	100.003
2531.01	100.088
2532.94	100.165
2534.87	100.172
2536.8	100.123
2538.73	100.08
2540.66	100.076
2542.58	100.089
2544.51	100.084
2546.44	100.068
2548.37	100.068
2550.3	100.086
2552.23	100.103
2554.16	100.108
2556.09	100.112
2558.02	100.116
2559.95	100.116
2561.88	100.123
2563.81	100.145
2565.73	100.168
2567.66	100.153
2569.59	100.093
2571.52	100.019
2573.45	99.9651
2575.38	99.9266
2577.31	99.8794
2579.24	99.824
2581.17	99.7938
2583.1	99.8241
2585.03	99.921
2586.95	100.052
2588.88	100.159
2590.81	100.19
2592.74	100.132
2594.67	100.018
2596.6	99.9091
2598.53	99.8568
2600.46	99.8852
2602.39	99.9764
2604.32	100.073
2606.25	100.107
2608.18	100.055
2610.1	99.9557
2612.03	99.8723
2613.96	99.8353
2615.89	99.8379
2617.82	99.8656
2619.75	99.9116
2621.68	99.963
2623.61	99.999
2625.54	100.013
2627.47	100.022
2629.4	100.043
2631.32	100.064
2633.25	100.061
2635.18	100.037
2637.11	100.028
2639.04	100.07
2640.97	100.154
2642.9	100.228
2644.83	100.227
2646.76	100.141
2648.69	100.023
2650.62	99.9397
2652.54	99.9129
2654.47	99.9125
2656.4	99.9134
2658.33	99.9231
2660.26	99.9437
2662.19	99.9421
2664.12	99.8928
2666.05	99.8308
2667.98	99.8205
2669.91	99.8781
2671.84	99.9634
2673.77	100.046
2675.69	100.131
2677.62	100.214
2679.55	100.249
2681.48	100.205
2683.41	100.121
2685.34	100.063
2687.27	100.043
2689.2	100.025
2691.13	99.9853
2693.06	99.9473
2694.99	99.9293
2696.91	99.9132
2698.84	99.8749
2700.77	99.8299
2702.7	99.8206
2704.63	99.8633
2706.56	99.9215
2708.49	99.9392
2710.42	99.8955
2712.35	99.827
2714.28	99.7946
2716.21	99.83
2718.14	99.9074
2720.06	99.9663
2721.99	99.9614
2723.92	99.8987
2725.85	99.8304
2727.78	99.8104
2729.71	99.8458
2731.64	99.8908
2733.57	99.896
2735.5	99.8649
2737.43	99.8511
2739.36	99.8964
2741.28	99.9835
2743.21	100.052
2745.14	100.055
2747.07	99.9859
2749	99.8783
2750.93	99.7826
2752.86	99.7505
2754.79	99.8078
2756.72	99.9266
2758.65	100.034
2760.58	100.065
2762.51	100.019
2764.43	99.9556
2766.36	99.9307
2768.29	99.9414
2770.22	99.9359
2772.15	99.8831
2774.08	99.8165
2776.01	99.8029
2777.94	99.8719
2779.87	99.9864
2781.8	100.075
2783.73	100.088
2785.65	100.031
2787.58	99.9549
2789.51	99.9123
2791.44	99.9137
2793.37	99.9254
2795.3	99.9165
2797.23	99.8981
2799.16	99.9019
2801.09	99.93
2803.02	99.9486
2804.95	99.931
2806.87	99.8877
2808.8	99.8516
2810.73	99.8522
2812.66	99.9001
2814.59	99.9761
2816.52	100.035
2818.45	100.043
2820.38	100.018
2822.31	100.002
2824.24	99.9948
2826.17	99.9561
2828.1	99.8768
2830.02	99.8159
2831.95	99.8294
2833.88	99.894
2835.81	99.9418
2837.74	99.9534
2839.67	99.9686
2841.6	100.007
2843.53	100.029
2845.46	99.9984
2847.39	99.9364
2849.32	99.8941
2851.24	99.8797
2853.17	99.8593
2855.1	99.8224
2857.03	99.8073
2858.96	99.8447
2860.89	99.903
2862.82	99.9205
2864.75	99.8867
2866.68	99.8593
2868.61	99.8878
2870.54	99.9476
2872.47	99.9739
2874.39	99.9447
2876.32	99.8964
2878.25	99.8662
2880.18	99.8585
2882.11	99.8715
2884.04	99.9092
2885.97	99.9474
2887.9	99.931
2889.83	99.846
2891.76	99.7641
2893.69	99.7682
2895.61	99.8468
2897.54	99.9095
2899.47	99.9003
2901.4	99.8489
2903.33	99.8047
2905.26	99.77
2907.19	99.7258
2909.12	99.6863
2911.05	99.6905
2912.98	99.7502
2914.91	99.83
2916.83	99.8773
2918.76	99.8679
2920.69	99.8318
2922.62	99.8352
2924.55	99.9179
