##TITLE=4 жидк кювета спектр
##$NOTE=11.03.2023 11:51:3 ^0 x10 v:1 [Без приставки]
##$ITAB=-1,-1
##FIRSTX=499.643
##DELTAX=1.92912
##NPOINTS=2333
##XUNITS=1/CM
##YUNITS=ABSORBANCE
499.643	0.645197
501.572	0.681411
503.501	0.717681
505.43	0.764784
507.36	0.818868
509.289	0.864639
511.218	0.892295
513.147	0.910101
515.076	0.935227
517.005	0.973749
518.934	1.00139
520.863	1.01141
522.792	0.977371
524.722	0.939769
526.651	0.922474
528.58	0.951701
530.509	1.02868
532.438	1.1006
534.367	1.11737
536.296	1.12215
538.225	1.1203
540.155	1.12164
542.084	1.10781
544.013	1.08955
545.942	1.06983
547.871	1.05144
549.8	1.03222
551.729	0.998919
553.658	0.962527
555.588	0.938823
557.517	0.93189
559.446	0.930854
561.375	0.922578
563.304	0.905766
565.233	0.88634
567.162	0.864539
569.091	0.836114
571.021	0.802868
572.95	0.772664
574.879	0.749745
576.808	0.73151
578.737	0.714941
580.666	0.701779
582.595	0.694766
584.524	0.691971
586.454	0.688049
588.383	0.679821
590.312	0.667774
592.241	0.652871
594.17	0.635136
596.099	0.615373
598.028	0.595486
599.957	0.57682
601.887	0.559879
603.816	0.545378
605.745	0.533771
607.674	0.52399
609.603	0.514752
611.532	0.507245
613.461	0.504007
615.39	0.504343
617.32	0.503062
619.249	0.495508
621.178	0.482082
623.107	0.465875
625.036	0.448978
626.965	0.432847
628.894	0.419044
630.823	0.407947
632.753	0.398725
634.682	0.391485
636.611	0.387677
638.54	0.387617
640.469	0.389442
642.398	0.391125
644.327	0.391703
646.256	0.390132
648.186	0.385484
650.115	0.379144
652.044	0.373533
653.973	0.367971
655.902	0.361208
657.831	0.359857
659.76	0.376902
661.689	0.417114
663.619	0.467405
665.548	0.494355
667.477	0.464905
669.406	0.404811
671.335	0.364031
673.264	0.347906
675.193	0.339515
677.122	0.327425
679.052	0.311521
680.981	0.296405
682.91	0.283662
684.839	0.272802
686.768	0.264597
688.697	0.260395
690.626	0.260226
692.555	0.263011
694.485	0.267403
696.414	0.27193
698.343	0.275172
700.272	0.276185
702.201	0.274498
704.13	0.269916
706.059	0.262703
707.988	0.25378
709.917	0.244401
711.847	0.235785
713.776	0.229233
715.705	0.226129
717.634	0.227196
719.563	0.231668
721.492	0.237585
723.421	0.243092
725.35	0.247247
727.28	0.249646
729.209	0.249847
731.138	0.247349
733.067	0.241941
734.996	0.234036
736.925	0.224891
738.854	0.216363
740.783	0.210144
742.713	0.207137
744.642	0.207517
746.571	0.211008
748.5	0.2168
750.429	0.223459
752.358	0.229379
754.287	0.233407
756.216	0.234893
758.146	0.233339
760.075	0.228505
762.004	0.221005
763.933	0.212401
765.862	0.20446
767.791	0.198451
769.72	0.195129
771.649	0.194981
773.579	0.198081
775.508	0.203741
777.437	0.21057
779.366	0.217046
781.295	0.222006
783.224	0.224569
785.153	0.223975
787.082	0.219957
789.012	0.213258
790.941	0.205422
792.87	0.197978
794.799	0.191986
796.728	0.188251
798.657	0.187504
800.586	0.190044
802.515	0.195302
804.445	0.202
806.374	0.208734
808.303	0.214297
810.232	0.217636
812.161	0.217921
814.09	0.214929
816.019	0.209259
817.948	0.202088
819.878	0.194742
821.807	0.188421
823.736	0.184119
825.665	0.182609
827.594	0.18437
829.523	0.189286
831.452	0.196355
833.381	0.203858
835.311	0.210077
837.24	0.213937
839.169	0.214993
841.098	0.213123
843.027	0.20856
844.956	0.202101
846.885	0.194962
848.814	0.188357
850.744	0.183369
852.673	0.180998
854.602	0.181911
856.531	0.185978
858.46	0.192204
860.389	0.199227
862.318	0.205782
864.247	0.210742
866.177	0.213107
868.106	0.212336
870.035	0.208635
871.964	0.202755
873.893	0.195681
875.822	0.188665
877.751	0.183262
879.68	0.18082
881.609	0.181771
883.539	0.185563
885.468	0.191291
887.397	0.198152
889.326	0.20522
891.255	0.211127
893.184	0.214466
895.113	0.214565
897.042	0.211672
898.972	0.206481
900.901	0.199805
902.83	0.192749
904.759	0.186767
906.688	0.183215
908.617	0.182795
910.546	0.185435
912.475	0.190568
914.405	0.197372
916.334	0.204741
918.263	0.211267
920.192	0.215522
922.121	0.216587
924.05	0.214411
925.979	0.209706
927.908	0.203527
929.838	0.196927
931.767	0.19093
933.696	0.186617
935.625	0.185007
937.554	0.186675
939.483	0.191444
941.412	0.198387
943.341	0.2061
945.271	0.213018
947.2	0.217734
949.129	0.219357
951.058	0.217779
952.987	0.21361
954.916	0.20778
956.845	0.201235
958.774	0.194995
960.704	0.190305
962.633	0.188409
964.562	0.189941
966.491	0.194487
968.42	0.200821
970.349	0.207626
972.278	0.213941
974.207	0.219013
976.137	0.221993
978.066	0.222109
979.995	0.219156
981.924	0.213727
983.853	0.206964
985.782	0.200227
987.711	0.194891
989.64	0.192132
991.57	0.192592
993.499	0.196146
995.428	0.202003
997.357	0.209036
999.286	0.216058
1001.22	0.221947
1003.14	0.225737
1005.07	0.226781
1007	0.22489
1008.93	0.220434
1010.86	0.214337
1012.79	0.207933
1014.72	0.202608
1016.65	0.19943
1018.58	0.198986
1020.51	0.201415
1022.44	0.206414
1024.36	0.213148
1026.29	0.220301
1028.22	0.226439
1030.15	0.230448
1032.08	0.231718
1034.01	0.230081
1035.94	0.225783
1037.87	0.21955
1039.8	0.212543
1041.73	0.206122
1043.66	0.201583
1045.58	0.199904
1047.51	0.201477
1049.44	0.205901
1051.37	0.212137
1053.3	0.219002
1055.23	0.225507
1057.16	0.230716
1059.09	0.23354
1061.02	0.23308
1062.95	0.229316
1064.88	0.223261
1066.81	0.216372
1068.73	0.209943
1070.66	0.205036
1072.59	0.202627
1074.52	0.203418
1076.45	0.207398
1078.38	0.213674
1080.31	0.220843
1082.24	0.227545
1084.17	0.232763
1086.1	0.235776
1088.03	0.236077
1089.95	0.233472
1091.88	0.228297
1093.81	0.221525
1095.74	0.214595
1097.67	0.209021
1099.6	0.20598
1101.53	0.206049
1103.46	0.209159
1105.39	0.2147
1107.32	0.221654
1109.25	0.228739
1111.18	0.234606
1113.1	0.238143
1115.03	0.238752
1116.96	0.236411
1118.89	0.23157
1120.82	0.225058
1122.75	0.218085
1124.68	0.212093
1126.61	0.208368
1128.54	0.207646
1130.47	0.209981
1132.4	0.214891
1134.32	0.221512
1136.25	0.228659
1138.18	0.234984
1140.11	0.239325
1142.04	0.241014
1143.97	0.239893
1145.9	0.236138
1147.83	0.230266
1149.76	0.223307
1151.69	0.216783
1153.62	0.212268
1155.55	0.210791
1157.47	0.212533
1159.4	0.216968
1161.33	0.223195
1163.26	0.230138
1165.19	0.236578
1167.12	0.241289
1169.05	0.243352
1170.98	0.242448
1172.91	0.238867
1174.84	0.233311
1176.77	0.226747
1178.69	0.220349
1180.62	0.215363
1182.55	0.212843
1184.48	0.213369
1186.41	0.21689
1188.34	0.222734
1190.27	0.229761
1192.2	0.236622
1194.13	0.242048
1196.06	0.245092
1197.99	0.245271
1199.91	0.242606
1201.84	0.237585
1203.77	0.231092
1205.7	0.22432
1207.63	0.218626
1209.56	0.215249
1211.49	0.21495
1213.42	0.217784
1215.35	0.223145
1217.28	0.229974
1219.21	0.236991
1221.14	0.242912
1223.06	0.246702
1224.99	0.247739
1226.92	0.245835
1228.85	0.241235
1230.78	0.234735
1232.71	0.2277
1234.64	0.221737
1236.57	0.218135
1238.5	0.21751
1240.43	0.219839
1242.36	0.224674
1244.28	0.231228
1246.21	0.238369
1248.14	0.244739
1250.07	0.249085
1252	0.250648
1253.93	0.249328
1255.86	0.245529
1257.79	0.23991
1259.72	0.233357
1261.65	0.22708
1263.58	0.222465
1265.51	0.22062
1267.43	0.22199
1269.36	0.226288
1271.29	0.232646
1273.22	0.239815
1275.15	0.246426
1277.08	0.251288
1279.01	0.253616
1280.94	0.253117
1282.87	0.249962
1284.8	0.244707
1286.73	0.238268
1288.65	0.231879
1290.58	0.22689
1292.51	0.224428
1294.44	0.225087
1296.37	0.22877
1298.3	0.23473
1300.23	0.241848
1302.16	0.24894
1304.09	0.254896
1306.02	0.25873
1307.95	0.259771
1309.87	0.257924
1311.8	0.253695
1313.73	0.247935
1315.66	0.241601
1317.59	0.235771
1319.52	0.231666
1321.45	0.230335
1323.38	0.232143
1325.31	0.236621
1327.24	0.24276
1329.17	0.249369
1331.1	0.255243
1333.02	0.259293
1334.95	0.260713
1336.88	0.259156
1338.81	0.254942
1340.74	0.249065
1342.67	0.242754
1344.6	0.237098
1346.53	0.233097
1348.46	0.231709
1350.39	0.233514
1352.32	0.238314
1354.24	0.245096
1356.17	0.252426
1358.1	0.259022
1360.03	0.263987
1361.96	0.266592
1363.89	0.266226
1365.82	0.262874
1367.75	0.257374
1369.68	0.251064
1371.61	0.245349
1373.54	0.241411
1375.47	0.240085
1377.39	0.241808
1379.32	0.246433
1381.25	0.253128
1383.18	0.260731
1385.11	0.268118
1387.04	0.274257
1388.97	0.278282
1390.9	0.279667
1392.83	0.278152
1394.76	0.273794
1396.69	0.267488
1398.61	0.260964
1400.54	0.255837
1402.47	0.253081
1404.4	0.253217
1406.33	0.256366
1408.26	0.26202
1410.19	0.268929
1412.12	0.275447
1414.05	0.280162
1415.98	0.282158
1417.91	0.280931
1419.83	0.276642
1421.76	0.270251
1423.69	0.262844
1425.62	0.255331
1427.55	0.248882
1429.48	0.24477
1431.41	0.243629
1433.34	0.24552
1435.27	0.250427
1437.2	0.257542
1439.13	0.264612
1441.06	0.269739
1442.98	0.27269
1444.91	0.273568
1446.84	0.271775
1448.77	0.267153
1450.7	0.260936
1452.63	0.254468
1454.56	0.248522
1456.49	0.244103
1458.42	0.242354
1460.35	0.243484
1462.28	0.247222
1464.2	0.25311
1466.13	0.259708
1468.06	0.26511
1469.99	0.268424
1471.92	0.269471
1473.85	0.267786
1475.78	0.26325
1477.71	0.256826
1479.64	0.249876
1481.57	0.243668
1483.5	0.239261
1485.43	0.237424
1487.35	0.238734
1489.28	0.243109
1491.21	0.249216
1493.14	0.255709
1495.07	0.262229
1497	0.268069
1498.93	0.271472
1500.86	0.271719
1502.79	0.269544
1504.72	0.265206
1506.65	0.258656
1508.57	0.251676
1510.5	0.246634
1512.43	0.244152
1514.36	0.244306
1516.29	0.247398
1518.22	0.253329
1520.15	0.261189
1522.08	0.26945
1524.01	0.276316
1525.94	0.28061
1527.87	0.282082
1529.8	0.28063
1531.72	0.276322
1533.65	0.270277
1535.58	0.264267
1537.51	0.259477
1539.44	0.256628
1541.37	0.256532
1543.3	0.259245
1545.23	0.263914
1547.16	0.269956
1549.09	0.276727
1551.02	0.282788
1552.94	0.286761
1554.87	0.288297
1556.8	0.287097
1558.73	0.282469
1560.66	0.275651
1562.59	0.269144
1564.52	0.263964
1566.45	0.260579
1568.38	0.259783
1570.31	0.261854
1572.24	0.266337
1574.16	0.273019
1576.09	0.281348
1578.02	0.289203
1579.95	0.294485
1581.88	0.296949
1583.81	0.297049
1585.74	0.294815
1587.67	0.290387
1589.6	0.284688
1591.53	0.27915
1593.46	0.275171
1595.39	0.273842
1597.31	0.275784
1599.24	0.280978
1601.17	0.288667
1603.1	0.297584
1605.03	0.30633
1606.96	0.313564
1608.89	0.318224
1610.82	0.319806
1612.75	0.318235
1614.68	0.313725
1616.61	0.307243
1618.53	0.300594
1620.46	0.295275
1622.39	0.292076
1624.32	0.291827
1626.25	0.294954
1628.18	0.300205
1630.11	0.305667
1632.04	0.310578
1633.97	0.314653
1635.9	0.316508
1637.83	0.314828
1639.76	0.310215
1641.68	0.303485
1643.61	0.294885
1645.54	0.285614
1647.47	0.277915
1649.4	0.273113
1651.33	0.271708
1653.26	0.273955
1655.19	0.278384
1657.12	0.282866
1659.05	0.286923
1660.98	0.290653
1662.9	0.293105
1664.83	0.29265
1666.76	0.288772
1668.69	0.282382
1670.62	0.2748
1672.55	0.267131
1674.48	0.260278
1676.41	0.255195
1678.34	0.252742
1680.27	0.253459
1682.2	0.257562
1684.12	0.264277
1686.05	0.271116
1687.98	0.275955
1689.91	0.278638
1691.84	0.279486
1693.77	0.278301
1695.7	0.274721
1697.63	0.268906
1699.56	0.26193
1701.49	0.255478
1703.42	0.250957
1705.35	0.249127
1707.27	0.250247
1709.2	0.253857
1711.13	0.258911
1713.06	0.264603
1714.99	0.270457
1716.92	0.275372
1718.85	0.277767
1720.78	0.277138
1722.71	0.273845
1724.64	0.268436
1726.57	0.262048
1728.49	0.256219
1730.42	0.252096
1732.35	0.250299
1734.28	0.25099
1736.21	0.253753
1738.14	0.258064
1740.07	0.263512
1742	0.269161
1743.93	0.273528
1745.86	0.275614
1747.79	0.275233
1749.72	0.272461
1751.64	0.267662
1753.57	0.261758
1755.5	0.255794
1757.43	0.250652
1759.36	0.247289
1761.29	0.246544
1763.22	0.248469
1765.15	0.252384
1767.08	0.25759
1769.01	0.263574
1770.94	0.269441
1772.86	0.273602
1774.79	0.274796
1776.72	0.273033
1778.65	0.269019
1780.58	0.263534
1782.51	0.257544
1784.44	0.252209
1786.37	0.2485
1788.3	0.247159
1790.23	0.24878
1792.16	0.253149
1794.08	0.258853
1796.01	0.264517
1797.94	0.269666
1799.87	0.273855
1801.8	0.276004
1803.73	0.275277
1805.66	0.271937
1807.59	0.266849
1809.52	0.260926
1811.45	0.255246
1813.38	0.251
1815.31	0.249057
1817.23	0.249774
1819.16	0.253028
1821.09	0.258258
1823.02	0.264532
1824.95	0.270652
1826.88	0.275335
1828.81	0.27768
1830.74	0.277503
1832.67	0.275006
1834.6	0.270505
1836.53	0.264731
1838.45	0.258948
1840.38	0.254471
1842.31	0.252214
1844.24	0.252566
1846.17	0.255377
1848.1	0.260087
1850.03	0.265921
1851.96	0.271885
1853.89	0.276801
1855.82	0.279687
1857.75	0.280091
1859.68	0.278058
1861.6	0.274048
1863.53	0.268819
1865.46	0.263247
1867.39	0.258297
1869.32	0.255059
1871.25	0.254354
1873.18	0.256317
1875.11	0.260554
1877.04	0.266359
1878.97	0.272642
1880.9	0.278091
1882.82	0.281638
1884.75	0.282711
1886.68	0.281218
1888.61	0.277552
1890.54	0.272504
1892.47	0.267029
1894.4	0.262065
1896.33	0.258503
1898.26	0.257099
1900.19	0.258267
1902.12	0.261877
1904.05	0.267255
1905.97	0.273339
1907.9	0.278873
1909.83	0.282747
1911.76	0.284365
1913.69	0.283636
1915.62	0.280731
1917.55	0.276091
1919.48	0.27057
1921.41	0.265294
1923.34	0.261313
1925.27	0.259406
1927.19	0.259975
1929.12	0.262961
1931.05	0.267875
1932.98	0.273871
1934.91	0.279839
1936.84	0.284618
1938.77	0.2873
1940.7	0.287416
1942.63	0.285015
1944.56	0.280639
1946.49	0.275151
1948.41	0.269561
1950.34	0.264956
1952.27	0.262315
1954.2	0.262208
1956.13	0.264662
1958.06	0.269231
1959.99	0.275066
1961.92	0.281009
1963.85	0.285882
1965.78	0.288808
1967.71	0.289361
1969.64	0.287531
1971.56	0.283648
1973.49	0.278401
1975.42	0.272832
1977.35	0.268099
1979.28	0.26512
1981.21	0.264405
1983.14	0.26609
1985.07	0.269953
1987	0.275394
1988.93	0.281472
1990.86	0.287035
1992.78	0.290962
1994.71	0.292477
1996.64	0.29133
1998.57	0.287769
2000.5	0.282483
2002.43	0.276535
2004.36	0.271171
2006.29	0.267531
2008.22	0.266354
2010.15	0.267765
2012.08	0.271325
2014.01	0.276325
2015.93	0.282012
2017.86	0.287528
2019.79	0.291832
2021.72	0.293911
2023.65	0.293222
2025.58	0.289976
2027.51	0.285017
2029.44	0.279417
2031.37	0.274178
2033.3	0.2702
2035.23	0.268239
2037.15	0.268715
2039.08	0.271546
2041.01	0.276206
2042.94	0.281887
2044.87	0.287604
2046.8	0.292265
2048.73	0.294891
2050.66	0.294952
2052.59	0.292529
2054.52	0.288173
2056.45	0.282693
2058.37	0.277088
2060.3	0.272484
2062.23	0.269895
2064.16	0.269887
2066.09	0.272401
2068.02	0.276865
2069.95	0.282422
2071.88	0.288069
2073.81	0.292758
2075.74	0.295595
2077.67	0.296095
2079.6	0.29426
2081.52	0.290461
2083.45	0.28533
2085.38	0.279749
2087.31	0.274805
2089.24	0.271557
2091.17	0.270713
2093.1	0.272417
2095.03	0.276292
2096.96	0.28159
2098.89	0.287343
2100.82	0.292501
2102.74	0.296139
2104.67	0.297636
2106.6	0.296742
2108.53	0.293566
2110.46	0.288603
2112.39	0.282773
2114.32	0.277309
2116.25	0.273418
2118.18	0.271896
2120.11	0.272939
2122.04	0.276225
2123.97	0.281112
2125.89	0.286762
2127.82	0.292177
2129.75	0.296286
2131.68	0.298218
2133.61	0.297616
2135.54	0.294725
2137.47	0.290191
2139.4	0.284848
2141.33	0.279664
2143.26	0.275691
2145.19	0.273772
2147.11	0.274224
2149.04	0.276814
2150.97	0.281026
2152.9	0.286249
2154.83	0.291674
2156.76	0.296231
2158.69	0.298863
2160.62	0.298986
2162.55	0.296674
2164.48	0.29249
2166.41	0.287251
2168.33	0.28192
2170.26	0.277518
2172.19	0.27493
2174.12	0.274691
2176.05	0.276867
2177.98	0.281042
2179.91	0.286402
2181.84	0.291926
2183.77	0.296611
2185.7	0.299634
2187.63	0.300447
2189.56	0.298861
2191.48	0.295145
2193.41	0.290041
2195.34	0.28462
2197.27	0.280027
2199.2	0.277188
2201.13	0.27659
2203.06	0.278222
2204.99	0.281688
2206.92	0.286379
2208.85	0.291549
2210.78	0.296333
2212.7	0.299822
2214.63	0.301283
2216.56	0.300386
2218.49	0.297301
2220.42	0.29264
2222.35	0.287312
2224.28	0.282343
2226.21	0.278699
2228.14	0.277132
2230.07	0.27802
2232	0.281231
2233.93	0.286104
2235.85	0.291626
2237.78	0.296737
2239.71	0.300545
2241.64	0.302399
2243.57	0.30194
2245.5	0.299242
2247.43	0.294852
2249.36	0.289652
2251.29	0.284642
2253.22	0.280788
2255.15	0.278873
2257.07	0.279289
2259	0.281927
2260.93	0.28626
2262.86	0.291547
2264.79	0.29692
2266.72	0.3014
2268.65	0.304051
2270.58	0.304325
2272.51	0.302256
2274.44	0.298331
2276.37	0.293268
2278.29	0.287959
2280.22	0.283452
2282.15	0.280739
2284.08	0.280434
2286.01	0.28259
2287.94	0.286756
2289.87	0.292149
2291.8	0.297833
2293.73	0.302864
2295.66	0.306392
2297.59	0.307783
2299.52	0.306822
2301.44	0.303883
2303.37	0.299819
2305.3	0.295592
2307.23	0.291983
2309.16	0.289643
2311.09	0.28926
2313.02	0.291372
2314.95	0.295934
2316.88	0.302207
2318.81	0.309041
2320.74	0.315202
2322.66	0.31966
2324.59	0.321834
2326.52	0.32161
2328.45	0.31925
2330.38	0.315359
2332.31	0.310809
2334.24	0.306581
2336.17	0.303603
2338.1	0.302552
2340.03	0.303732
2341.96	0.306905
2343.89	0.31107
2345.81	0.315019
2347.74	0.318324
2349.67	0.321239
2351.6	0.323937
2353.53	0.325941
2355.46	0.326151
2357.39	0.323946
2359.32	0.32002
2361.25	0.315693
2363.18	0.312044
2365.11	0.309533
2367.03	0.308142
2368.96	0.307912
2370.89	0.309008
2372.82	0.311175
2374.75	0.31348
2376.68	0.314777
2378.61	0.314349
2380.54	0.312108
2382.47	0.308352
2384.4	0.303491
2386.33	0.298021
2388.26	0.292607
2390.18	0.288076
2392.11	0.285247
2394.04	0.284685
2395.97	0.286487
2397.9	0.290236
2399.83	0.295169
2401.76	0.300378
2403.69	0.304929
2405.62	0.307935
2407.55	0.308731
2409.48	0.307143
2411.4	0.303597
2413.33	0.298918
2415.26	0.294011
2417.19	0.289712
2419.12	0.286804
2421.05	0.285927
2422.98	0.287333
2424.91	0.290713
2426.84	0.295337
2428.77	0.300377
2430.7	0.305049
2432.62	0.30855
2434.55	0.310111
2436.48	0.309319
2438.41	0.306404
2440.34	0.302105
2442.27	0.297276
2444.2	0.292691
2446.13	0.289139
2448.06	0.287425
2449.99	0.288051
2451.92	0.290903
2453.85	0.295314
2455.77	0.300406
2457.7	0.305316
2459.63	0.309181
2461.56	0.311168
2463.49	0.31075
2465.42	0.308012
2467.35	0.303664
2469.28	0.298729
2471.21	0.29418
2473.14	0.290756
2475.07	0.288967
2476.99	0.289136
2478.92	0.291344
2480.85	0.295294
2482.78	0.300261
2484.71	0.305248
2486.64	0.309294
2488.57	0.311714
2490.5	0.31216
2492.43	0.310567
2494.36	0.307155
2496.29	0.302491
2498.22	0.297498
2500.14	0.293271
2502.07	0.290748
2504	0.290428
2505.93	0.292301
2507.86	0.295955
2509.79	0.300712
2511.72	0.305707
2513.65	0.310006
2515.58	0.312819
2517.51	0.31369
2519.44	0.312522
2521.36	0.309509
2523.29	0.305152
2525.22	0.300304
2527.15	0.29604
2529.08	0.293308
2531.01	0.292583
2532.94	0.293829
2534.87	0.296736
2536.8	0.300908
2538.73	0.305796
2540.66	0.310524
2542.58	0.314025
2544.51	0.315534
2546.44	0.314945
2548.37	0.31265
2550.3	0.309091
2552.23	0.304655
2554.16	0.299978
2556.09	0.296104
2558.02	0.294116
2559.95	0.29455
2561.88	0.297161
2563.81	0.301194
2565.73	0.305801
2567.66	0.310264
2569.59	0.313931
2571.52	0.316119
2573.45	0.316224
2575.38	0.314059
2577.31	0.310112
2579.24	0.305394
2581.17	0.300965
2583.1	0.297601
2585.03	0.295797
2586.95	0.295893
2588.88	0.297995
2590.81	0.301778
2592.74	0.306486
2594.67	0.311219
2596.6	0.315213
2598.53	0.317857
2600.46	0.318619
2602.39	0.317173
2604.32	0.313728
2606.25	0.309124
2608.18	0.304465
2610.1	0.300635
2612.03	0.298168
2613.96	0.297452
2615.89	0.298808
2617.82	0.302213
2619.75	0.307026
2621.68	0.312134
2623.61	0.316449
2625.54	0.319239
2627.47	0.320104
2629.4	0.318904
2631.32	0.315897
2633.25	0.311808
2635.18	0.307529
2637.11	0.303751
2639.04	0.300954
2640.97	0.299654
2642.9	0.300388
2644.83	0.303286
2646.76	0.307745
2648.69	0.312676
2650.62	0.317082
2652.54	0.320327
2654.47	0.321969
2656.4	0.321631
2658.33	0.319246
2660.26	0.315312
2662.19	0.310732
2664.12	0.306433
2666.05	0.30319
2667.98	0.301664
2669.91	0.302287
2671.84	0.304973
2673.77	0.309051
2675.69	0.313604
2677.62	0.317874
2679.55	0.321321
2681.48	0.323453
2683.41	0.323794
2685.34	0.322117
2687.27	0.318667
2689.2	0.314171
2691.13	0.309635
2693.06	0.306036
2694.99	0.30407
2696.91	0.304067
2698.84	0.306053
2700.77	0.309749
2702.7	0.314495
2704.63	0.319305
2706.56	0.323196
2708.49	0.325539
2710.42	0.326095
2712.35	0.324845
2714.28	0.321943
2716.21	0.317852
2718.14	0.313377
2720.06	0.309491
2721.99	0.307078
2723.92	0.30673
2725.85	0.308557
2727.78	0.312098
2729.71	0.316515
2731.64	0.320958
2733.57	0.324768
2735.5	0.327411
2737.43	0.328398
2739.36	0.32744
2741.28	0.324664
2743.21	0.320626
2745.14	0.316127
2747.07	0.312067
2749	0.309316
2750.93	0.308491
2752.86	0.309708
2754.79	0.312594
2756.72	0.316591
2758.65	0.321177
2760.58	0.325721
2762.51	0.329298
2764.43	0.33095
2766.36	0.330292
2768.29	0.327725
2770.22	0.324012
2772.15	0.31981
2774.08	0.315716
2776.01	0.312511
