##TITLE=4 liq box interferogram
##$NOTE=11.03.2023 11:51:3 ^0 x10 v:1
##$ITAB=-1,-1
##FIRSTX=0
##DELTAX=1
##NPOINTS=6490
##XUNITS=1/CM
##YUNITS=ABSORBANCE
0	1.92188
1	5.92188
2	5.92188
3	3.92188
4	-0.078125
5	1.92188
6	2.92188
7	2.92188
8	4.92188
9	4.92188
10	-2.07813
11	-7.07813
12	-14.0781
13	-15.0781
14	-15.0781
15	-11.0781
16	-9.07813
17	-7.07813
18	-0.078125
19	5.92188
20	6.92188
21	10.9219
22	13.9219
23	15.9219
24	13.9219
25	14.9219
26	5.92188
27	-0.078125
28	-10.0781
29	-12.0781
30	-17.0781
31	-19.0781
32	-15.0781
33	-10.0781
34	-5.07813
35	2.92188
36	11.9219
37	14.9219
38	16.9219
39	13.9219
40	12.9219
41	14.9219
42	11.9219
43	9.92188
44	1.92188
45	-6.07813
46	-11.0781
47	-14.0781
48	-15.0781
49	-18.0781
50	-17.0781
51	-14.0781
52	-9.07813
53	-6.07813
54	0.921875
55	3.92188
56	8.92188
57	11.9219
58	15.9219
59	16.9219
60	17.9219
61	17.9219
62	11.9219
63	3.92188
64	-8.07813
65	-17.0781
66	-24.0781
67	-30.0781
68	-26.0781
69	-26.0781
70	-24.0781
71	-17.0781
72	-4.07813
73	7.92188
74	18.9219
75	26.9219
76	35.9219
77	38.9219
78	36.9219
79	33.9219
80	23.9219
81	8.92188
82	-9.07813
83	-22.0781
84	-29.0781
85	-35.0781
86	-40.0781
87	-37.0781
88	-30.0781
89	-20.0781
90	-9.07813
91	3.92188
92	14.9219
93	22.9219
94	33.9219
95	37.9219
96	38.9219
97	35.9219
98	29.9219
99	18.9219
100	4.92188
101	-13.0781
102	-25.0781
103	-35.0781
104	-42.0781
105	-42.0781
106	-41.0781
107	-40.0781
108	-35.0781
109	-22.0781
110	-11.0781
111	6.92188
112	23.9219
113	38.9219
114	53.9219
115	56.9219
116	53.9219
117	46.9219
118	29.9219
119	12.9219
120	-6.07813
121	-24.0781
122	-39.0781
123	-53.0781
124	-56.0781
125	-53.0781
126	-46.0781
127	-35.0781
128	-19.0781
129	0.921875
130	22.9219
131	36.9219
132	49.9219
133	55.9219
134	57.9219
135	50.9219
136	38.9219
137	29.9219
138	13.9219
139	-7.07813
140	-24.0781
141	-41.0781
142	-53.0781
143	-54.0781
144	-53.0781
145	-51.0781
146	-39.0781
147	-27.0781
148	-12.0781
149	3.92188
150	19.9219
151	32.9219
152	44.9219
153	51.9219
154	53.9219
155	52.9219
156	42.9219
157	27.9219
158	6.92188
159	-11.0781
160	-26.0781
161	-42.0781
162	-51.0781
163	-57.0781
164	-58.0781
165	-50.0781
166	-36.0781
167	-23.0781
168	-4.07813
169	9.92188
170	31.9219
171	44.9219
172	54.9219
173	54.9219
174	49.9219
175	41.9219
176	27.9219
177	14.9219
178	1.92188
179	-12.0781
180	-24.0781
181	-31.0781
182	-38.0781
183	-40.0781
184	-39.0781
185	-32.0781
186	-21.0781
187	-9.07813
188	-2.07813
189	4.92188
190	14.9219
191	21.9219
192	30.9219
193	31.9219
194	32.9219
195	29.9219
196	22.9219
197	17.9219
198	6.92188
199	-4.07813
200	-12.0781
201	-22.0781
202	-31.0781
203	-34.0781
204	-29.0781
205	-27.0781
206	-26.0781
207	-18.0781
208	-11.0781
209	1.92188
210	12.9219
211	19.9219
212	25.9219
213	23.9219
214	19.9219
215	14.9219
216	9.92188
217	1.92188
218	0.921875
219	2.92188
220	1.92188
221	-4.07813
222	-3.07813
223	-4.07813
224	-4.07813
225	-1.07813
226	-0.078125
227	-2.07813
228	-2.07813
229	-2.07813
230	-7.07813
231	-10.0781
232	-11.0781
233	-10.0781
234	-9.07813
235	-3.07813
236	-0.078125
237	6.92188
238	14.9219
239	14.9219
240	14.9219
241	11.9219
242	13.9219
243	8.92188
244	8.92188
245	7.92188
246	2.92188
247	-7.07813
248	-14.0781
249	-20.0781
250	-19.0781
251	-22.0781
252	-21.0781
253	-20.0781
254	-15.0781
255	-15.0781
256	-9.07813
257	-6.07813
258	0.921875
259	11.9219
260	22.9219
261	29.9219
262	37.9219
263	41.9219
264	37.9219
265	29.9219
266	15.9219
267	4.92188
268	-6.07813
269	-17.0781
270	-31.0781
271	-43.0781
272	-46.0781
273	-46.0781
274	-37.0781
275	-29.0781
276	-16.0781
277	2.92188
278	17.9219
279	37.9219
280	43.9219
281	50.9219
282	48.9219
283	41.9219
284	36.9219
285	24.9219
286	10.9219
287	-4.07813
288	-20.0781
289	-36.0781
290	-44.0781
291	-51.0781
292	-51.0781
293	-43.0781
294	-41.0781
295	-32.0781
296	-19.0781
297	-5.07813
298	10.9219
299	25.9219
300	37.9219
301	51.9219
302	58.9219
303	52.9219
304	45.9219
305	36.9219
306	16.9219
307	-4.07813
308	-20.0781
309	-33.0781
310	-48.0781
311	-58.0781
312	-58.0781
313	-55.0781
314	-46.0781
315	-32.0781
316	-11.0781
317	10.9219
318	34.9219
319	47.9219
320	54.9219
321	56.9219
322	57.9219
323	46.9219
324	35.9219
325	24.9219
326	4.92188
327	-10.0781
328	-26.0781
329	-38.0781
330	-51.0781
331	-53.0781
332	-50.0781
333	-42.0781
334	-30.0781
335	-17.0781
336	-2.07813
337	5.92188
338	17.9219
339	27.9219
340	31.9219
341	37.9219
342	35.9219
343	36.9219
344	27.9219
345	16.9219
346	6.92188
347	-13.0781
348	-24.0781
349	-33.0781
350	-37.0781
351	-38.0781
352	-35.0781
353	-28.0781
354	-22.0781
355	-10.0781
356	4.92188
357	10.9219
358	18.9219
359	28.9219
360	30.9219
361	30.9219
362	25.9219
363	14.9219
364	5.92188
365	-1.07813
366	-9.07813
367	-11.0781
368	-12.0781
369	-12.0781
370	-12.0781
371	-8.07813
372	-2.07813
373	-1.07813
374	2.92188
375	2.92188
376	-0.078125
377	0.921875
378	-0.078125
379	-4.07813
380	-9.07813
381	-10.0781
382	-5.07813
383	-3.07813
384	-2.07813
385	0.921875
386	1.92188
387	4.92188
388	6.92188
389	6.92188
390	2.92188
391	3.92188
392	2.92188
393	2.92188
394	2.92188
395	-6.07813
396	-9.07813
397	-11.0781
398	-13.0781
399	-13.0781
400	-16.0781
401	-12.0781
402	-6.07813
403	-4.07813
404	-1.07813
405	4.92188
406	8.92188
407	13.9219
408	16.9219
409	19.9219
410	26.9219
411	22.9219
412	17.9219
413	9.92188
414	1.92188
415	-4.07813
416	-11.0781
417	-22.0781
418	-23.0781
419	-21.0781
420	-19.0781
421	-13.0781
422	-5.07813
423	2.92188
424	8.92188
425	15.9219
426	20.9219
427	24.9219
428	20.9219
429	13.9219
430	6.92188
431	-1.07813
432	-15.0781
433	-22.0781
434	-24.0781
435	-25.0781
436	-19.0781
437	-16.0781
438	-14.0781
439	-6.07813
440	4.92188
441	7.92188
442	12.9219
443	18.9219
444	20.9219
445	19.9219
446	13.9219
447	7.92188
448	3.92188
449	-5.07813
450	-13.0781
451	-19.0781
452	-21.0781
453	-21.0781
454	-15.0781
455	-14.0781
456	-13.0781
457	-4.07813
458	3.92188
459	10.9219
460	17.9219
461	24.9219
462	30.9219
463	32.9219
464	27.9219
465	20.9219
466	13.9219
467	0.921875
468	-12.0781
469	-21.0781
470	-33.0781
471	-35.0781
472	-38.0781
473	-37.0781
474	-32.0781
475	-20.0781
476	-7.07813
477	6.92188
478	22.9219
479	34.9219
480	41.9219
481	41.9219
482	34.9219
483	29.9219
484	17.9219
485	3.92188
486	-10.0781
487	-16.0781
488	-26.0781
489	-37.0781
490	-45.0781
491	-41.0781
492	-34.0781
493	-25.0781
494	-17.0781
495	-7.07813
496	2.92188
497	14.9219
498	23.9219
499	28.9219
500	29.9219
501	36.9219
502	31.9219
503	28.9219
504	25.9219
505	18.9219
506	8.92188
507	-1.07813
508	-17.0781
509	-23.0781
510	-29.0781
511	-33.0781
512	-33.0781
513	-30.0781
514	-22.0781
515	-15.0781
516	-3.07813
517	2.92188
518	10.9219
519	21.9219
520	24.9219
521	31.9219
522	29.9219
523	31.9219
524	23.9219
525	14.9219
526	1.92188
527	-6.07813
528	-17.0781
529	-22.0781
530	-27.0781
531	-24.0781
532	-23.0781
533	-22.0781
534	-18.0781
535	-19.0781
536	-10.0781
537	-5.07813
538	-1.07813
539	9.92188
540	13.9219
541	18.9219
542	20.9219
543	20.9219
544	19.9219
545	14.9219
546	12.9219
547	13.9219
548	9.92188
549	5.92188
550	-3.07813
551	-13.0781
552	-21.0781
553	-24.0781
554	-25.0781
555	-24.0781
556	-14.0781
557	-3.07813
558	0.921875
559	10.9219
560	12.9219
561	17.9219
562	15.9219
563	11.9219
564	13.9219
565	16.9219
566	12.9219
567	9.92188
568	4.92188
569	-4.07813
570	-8.07813
571	-11.0781
572	-10.0781
573	-11.0781
574	-8.07813
575	-3.07813
576	-2.07813
577	-7.07813
578	-11.0781
579	-13.0781
580	-10.0781
581	-11.0781
582	-3.07813
583	2.92188
584	1.92188
585	8.92188
586	10.9219
587	7.92188
588	3.92188
589	5.92188
590	8.92188
591	9.92188
592	8.92188
593	8.92188
594	0.921875
595	-4.07813
596	-8.07813
597	-12.0781
598	-8.07813
599	-7.07813
600	-5.07813
601	-0.078125
602	0.921875
603	0.921875
604	0.921875
605	-3.07813
606	-3.07813
607	0.921875
608	4.92188
609	9.92188
610	13.9219
611	14.9219
612	11.9219
613	9.92188
614	5.92188
615	2.92188
616	-0.078125
617	-3.07813
618	-9.07813
619	-14.0781
620	-18.0781
621	-23.0781
622	-23.0781
623	-22.0781
624	-15.0781
625	-7.07813
626	1.92188
627	12.9219
628	18.9219
629	21.9219
630	25.9219
631	19.9219
632	14.9219
633	13.9219
634	5.92188
635	-2.07813
636	-6.07813
637	-13.0781
638	-19.0781
639	-20.0781
640	-20.0781
641	-16.0781
642	-11.0781
643	-6.07813
644	-1.07813
645	4.92188
646	6.92188
647	11.9219
648	13.9219
649	18.9219
650	16.9219
651	18.9219
652	16.9219
653	8.92188
654	6.92188
655	0.921875
656	-4.07813
657	-12.0781
658	-17.0781
659	-18.0781
660	-20.0781
661	-19.0781
662	-16.0781
663	-12.0781
664	-3.07813
665	1.92188
666	8.92188
667	13.9219
668	18.9219
669	18.9219
670	19.9219
671	17.9219
672	5.92188
673	4.92188
674	-3.07813
675	-14.0781
676	-20.0781
677	-22.0781
678	-21.0781
679	-19.0781
680	-16.0781
681	-13.0781
682	-3.07813
683	2.92188
684	6.92188
685	10.9219
686	10.9219
687	12.9219
688	11.9219
689	9.92188
690	6.92188
691	6.92188
692	4.92188
693	1.92188
694	1.92188
695	1.92188
696	1.92188
697	-1.07813
698	-5.07813
699	-7.07813
700	-7.07813
701	-7.07813
702	-6.07813
703	-3.07813
704	-2.07813
705	0.921875
706	5.92188
707	7.92188
708	9.92188
709	8.92188
710	9.92188
711	4.92188
712	7.92188
713	4.92188
714	-1.07813
715	-4.07813
716	-13.0781
717	-15.0781
718	-18.0781
719	-19.0781
720	-18.0781
721	-13.0781
722	-3.07813
723	3.92188
724	6.92188
725	4.92188
726	5.92188
727	7.92188
728	5.92188
729	2.92188
730	0.921875
731	4.92188
732	1.92188
733	-2.07813
734	-0.078125
735	-3.07813
736	-2.07813
737	-7.07813
738	-6.07813
739	-5.07813
740	-3.07813
741	-5.07813
742	-4.07813
743	-4.07813
744	-2.07813
745	2.92188
746	10.9219
747	17.9219
748	20.9219
749	23.9219
750	22.9219
751	13.9219
752	5.92188
753	1.92188
754	-9.07813
755	-18.0781
756	-26.0781
757	-25.0781
758	-23.0781
759	-26.0781
760	-23.0781
761	-7.07813
762	4.92188
763	6.92188
764	12.9219
765	21.9219
766	26.9219
767	27.9219
768	24.9219
769	14.9219
770	2.92188
771	-8.07813
772	-16.0781
773	-17.0781
774	-23.0781
775	-28.0781
776	-25.0781
777	-19.0781
778	-12.0781
779	-5.07813
780	1.92188
781	5.92188
782	10.9219
783	11.9219
784	20.9219
785	20.9219
786	19.9219
787	17.9219
788	13.9219
789	7.92188
790	4.92188
791	0.921875
792	-7.07813
793	-11.0781
794	-14.0781
795	-18.0781
796	-17.0781
797	-15.0781
798	-10.0781
799	-4.07813
800	4.92188
801	12.9219
802	19.9219
803	18.9219
804	16.9219
805	11.9219
806	5.92188
807	-1.07813
808	-8.07813
809	-13.0781
810	-19.0781
811	-20.0781
812	-21.0781
813	-21.0781
814	-14.0781
815	-5.07813
816	5.92188
817	16.9219
818	20.9219
819	22.9219
820	20.9219
821	10.9219
822	2.92188
823	-6.07813
824	-13.0781
825	-22.0781
826	-22.0781
827	-22.0781
828	-15.0781
829	-13.0781
830	-7.07813
831	0.921875
832	4.92188
833	11.9219
834	21.9219
835	22.9219
836	19.9219
837	15.9219
838	10.9219
839	5.92188
840	-1.07813
841	-7.07813
842	-11.0781
843	-7.07813
844	-5.07813
845	-7.07813
846	-10.0781
847	-12.0781
848	-9.07813
849	-10.0781
850	-9.07813
851	-7.07813
852	-3.07813
853	2.92188
854	5.92188
855	7.92188
856	9.92188
857	14.9219
858	12.9219
859	12.9219
860	5.92188
861	3.92188
862	-3.07813
863	-10.0781
864	-16.0781
865	-18.0781
866	-18.0781
867	-16.0781
868	-8.07813
869	-5.07813
870	2.92188
871	6.92188
872	10.9219
873	8.92188
874	7.92188
875	8.92188
876	6.92188
877	3.92188
878	-2.07813
879	-3.07813
880	-6.07813
881	-1.07813
882	0.921875
883	1.92188
884	6.92188
885	3.92188
886	8.92188
887	4.92188
888	2.92188
889	-2.07813
890	-8.07813
891	-6.07813
892	-8.07813
893	-8.07813
894	-9.07813
895	-5.07813
896	0.921875
897	3.92188
898	6.92188
899	8.92188
900	8.92188
901	6.92188
902	-1.07813
903	-6.07813
904	-12.0781
905	-19.0781
906	-20.0781
907	-18.0781
908	-13.0781
909	-4.07813
910	6.92188
911	12.9219
912	19.9219
913	21.9219
914	19.9219
915	18.9219
916	15.9219
917	11.9219
918	5.92188
919	4.92188
920	2.92188
921	-0.078125
922	-0.078125
923	2.92188
924	3.92188
925	4.92188
926	10.9219
927	9.92188
928	9.92188
929	2.92188
930	-3.07813
931	-5.07813
932	-11.0781
933	-21.0781
934	-32.0781
935	-40.0781
936	-58.0781
937	-77.0781
938	-97.0781
939	-108.078
940	-109.078
941	-90.0781
942	-49.0781
943	16.9219
944	91.9219
945	163.922
946	215.922
947	231.922
948	211.922
949	161.922
950	90.9219
951	23.9219
952	-38.0781
953	-80.0781
954	-105.078
955	-111.078
956	-101.078
957	-86.0781
958	-73.0781
959	-54.0781
960	-42.0781
961	-33.0781
962	-30.0781
963	-27.0781
964	-20.0781
965	-12.0781
966	-9.07813
967	-3.07813
968	0.921875
969	7.92188
970	8.92188
971	8.92188
972	13.9219
973	20.9219
974	26.9219
975	32.9219
976	35.9219
977	37.9219
978	38.9219
979	33.9219
980	28.9219
981	19.9219
982	9.92188
983	-3.07813
984	-18.0781
985	-27.0781
986	-34.0781
987	-34.0781
988	-30.0781
989	-16.0781
990	-4.07813
991	2.92188
992	15.9219
993	20.9219
994	24.9219
995	24.9219
996	23.9219
997	13.9219
998	1.92188
999	-3.07813
1000	-11.0781
1001	-17.0781
1002	-23.0781
1003	-23.0781
1004	-22.0781
1005	-17.0781
1006	-14.0781
1007	-10.0781
1008	-7.07813
1009	-8.07813
1010	-6.07813
1011	-1.07813
1012	-1.07813
1013	0.921875
1014	2.92188
1015	8.92188
1016	9.92188
1017	15.9219
1018	17.9219
1019	14.9219
1020	11.9219
1021	3.92188
1022	-3.07813
1023	-12.0781
1024	-17.0781
1025	-16.0781
1026	-14.0781
1027	-14.0781
1028	-8.07813
1029	-0.078125
1030	9.92188
1031	14.9219
1032	20.9219
1033	27.9219
1034	30.9219
1035	26.9219
1036	15.9219
1037	1.92188
1038	-8.07813
1039	-19.0781
1040	-24.0781
1041	-24.0781
1042	-18.0781
1043	-11.0781
1044	-2.07813
1045	3.92188
1046	11.9219
1047	11.9219
1048	10.9219
1049	10.9219
1050	6.92188
1051	2.92188
1052	-9.07813
1053	-15.0781
1054	-15.0781
1055	-16.0781
1056	-18.0781
1057	-13.0781
1058	-11.0781
1059	-6.07813
1060	0.921875
1061	2.92188
1062	1.92188
1063	1.92188
1064	-0.078125
1065	0.921875
1066	-1.07813
1067	4.92188
1068	7.92188
1069	10.9219
1070	19.9219
1071	21.9219
1072	17.9219
1073	13.9219
1074	7.92188
1075	-0.078125
1076	-7.07813
1077	-17.0781
1078	-22.0781
1079	-26.0781
1080	-27.0781
1081	-25.0781
1082	-13.0781
1083	0.921875
1084	11.9219
1085	22.9219
1086	27.9219
1087	29.9219
1088	29.9219
1089	20.9219
1090	4.92188
1091	-5.07813
1092	-12.0781
1093	-18.0781
1094	-21.0781
1095	-24.0781
1096	-20.0781
1097	-14.0781
1098	-12.0781
1099	-6.07813
1100	4.92188
1101	9.92188
1102	12.9219
1103	10.9219
1104	4.92188
1105	-0.078125
1106	-6.07813
1107	-9.07813
1108	-5.07813
1109	-4.07813
1110	2.92188
1111	10.9219
1112	13.9219
1113	12.9219
1114	16.9219
1115	10.9219
1116	2.92188
1117	-3.07813
1118	-11.0781
1119	-12.0781
1120	-10.0781
1121	-9.07813
1122	-8.07813
1123	-2.07813
1124	2.92188
1125	9.92188
1126	13.9219
1127	16.9219
1128	15.9219
1129	10.9219
1130	1.92188
1131	-5.07813
1132	-15.0781
1133	-21.0781
1134	-18.0781
1135	-13.0781
1136	-5.07813
1137	6.92188
1138	14.9219
1139	18.9219
1140	21.9219
1141	19.9219
1142	11.9219
1143	4.92188
1144	-7.07813
1145	-15.0781
1146	-20.0781
1147	-22.0781
1148	-17.0781
1149	-16.0781
1150	-11.0781
1151	-5.07813
1152	5.92188
1153	10.9219
1154	14.9219
1155	16.9219
1156	14.9219
1157	7.92188
1158	-1.07813
1159	-6.07813
1160	-10.0781
1161	-12.0781
1162	-11.0781
1163	-5.07813
1164	-0.078125
1165	3.92188
1166	7.92188
1167	7.92188
1168	8.92188
1169	1.92188
1170	0.921875
1171	-4.07813
1172	-10.0781
1173	-15.0781
1174	-16.0781
1175	-10.0781
1176	-2.07813
1177	5.92188
1178	10.9219
1179	19.9219
1180	23.9219
1181	22.9219
1182	15.9219
1183	7.92188
1184	-6.07813
1185	-14.0781
1186	-21.0781
1187	-24.0781
1188	-24.0781
1189	-19.0781
1190	-15.0781
1191	-2.07813
1192	8.92188
1193	12.9219
1194	12.9219
1195	14.9219
1196	8.92188
1197	-1.07813
1198	-10.0781
1199	-17.0781
1200	-18.0781
1201	-18.0781
1202	-13.0781
1203	-2.07813
1204	9.92188
1205	11.9219
1206	18.9219
1207	21.9219
1208	14.9219
1209	10.9219
1210	0.921875
1211	-6.07813
1212	-14.0781
1213	-20.0781
1214	-23.0781
1215	-20.0781
1216	-16.0781
1217	-8.07813
1218	4.92188
1219	10.9219
1220	16.9219
1221	27.9219
1222	27.9219
1223	25.9219
1224	17.9219
1225	9.92188
1226	-3.07813
1227	-10.0781
1228	-15.0781
1229	-16.0781
1230	-14.0781
1231	-10.0781
1232	-8.07813
1233	-2.07813
1234	2.92188
1235	-2.07813
1236	-10.0781
1237	-14.0781
1238	-16.0781
1239	-16.0781
1240	-14.0781
1241	-6.07813
1242	2.92188
1243	11.9219
1244	24.9219
1245	32.9219
1246	34.9219
1247	28.9219
1248	24.9219
1249	13.9219
1250	-2.07813
1251	-18.0781
1252	-33.0781
1253	-41.0781
1254	-45.0781
1255	-42.0781
1256	-30.0781
1257	-15.0781
1258	2.92188
1259	17.9219
1260	29.9219
1261	40.9219
1262	43.9219
1263	37.9219
1264	30.9219
1265	16.9219
1266	1.92188
1267	-3.07813
1268	-9.07813
1269	-9.07813
1270	-5.07813
1271	-1.07813
1272	-0.078125
1273	-0.078125
1274	-0.078125
1275	-8.07813
1276	-11.0781
1277	-15.0781
1278	-14.0781
1279	-17.0781
1280	-18.0781
1281	-14.0781
1282	-5.07813
1283	0.921875
1284	6.92188
1285	14.9219
1286	24.9219
1287	29.9219
1288	27.9219
1289	17.9219
1290	7.92188
1291	-8.07813
1292	-17.0781
1293	-32.0781
1294	-35.0781
1295	-33.0781
1296	-22.0781
1297	-9.07813
1298	5.92188
1299	14.9219
1300	22.9219
1301	27.9219
1302	27.9219
1303	20.9219
1304	11.9219
1305	3.92188
1306	-4.07813
1307	-10.0781
1308	-13.0781
1309	-13.0781
1310	-6.07813
1311	-1.07813
1312	5.92188
1313	9.92188
1314	8.92188
1315	14.9219
1316	7.92188
1317	-2.07813
1318	-11.0781
1319	-14.0781
1320	-13.0781
1321	-14.0781
1322	-12.0781
1323	-1.07813
1324	12.9219
1325	17.9219
1326	24.9219
1327	25.9219
1328	21.9219
1329	14.9219
1330	1.92188
1331	-17.0781
1332	-27.0781
1333	-33.0781
1334	-33.0781
1335	-29.0781
1336	-19.0781
1337	-9.07813
1338	0.921875
1339	11.9219
1340	21.9219
1341	28.9219
1342	29.9219
1343	21.9219
1344	10.9219
1345	0.921875
1346	-8.07813
1347	-16.0781
1348	-23.0781
1349	-19.0781
1350	-13.0781
1351	-9.07813
1352	0.921875
1353	13.9219
1354	18.9219
1355	20.9219
1356	14.9219
1357	7.92188
1358	2.92188
1359	-9.07813
1360	-15.0781
1361	-21.0781
1362	-16.0781
1363	-5.07813
1364	2.92188
1365	11.9219
1366	14.9219
1367	18.9219
1368	15.9219
1369	12.9219
1370	7.92188
1371	-5.07813
1372	-14.0781
1373	-18.0781
1374	-14.0781
1375	-10.0781
1376	-3.07813
1377	4.92188
1378	13.9219
1379	20.9219
1380	23.9219
1381	22.9219
1382	13.9219
1383	0.921875
1384	-15.0781
1385	-27.0781
1386	-41.0781
1387	-46.0781
1388	-41.0781
1389	-33.0781
1390	-15.0781
1391	6.92188
1392	24.9219
1393	40.9219
1394	45.9219
1395	44.9219
1396	40.9219
1397	27.9219
1398	9.92188
1399	-6.07813
1400	-18.0781
1401	-31.0781
1402	-36.0781
1403	-35.0781
1404	-28.0781
1405	-15.0781
1406	-4.07813
1407	2.92188
1408	12.9219
1409	16.9219
1410	19.9219
1411	16.9219
1412	10.9219
1413	3.92188
1414	3.92188
1415	4.92188
1416	7.92188
1417	16.9219
1418	22.9219
1419	21.9219
1420	22.9219
1421	16.9219
1422	0.921875
1423	-14.0781
1424	-28.0781
1425	-42.0781
1426	-48.0781
1427	-45.0781
1428	-35.0781
1429	-24.0781
1430	-9.07813
1431	8.92188
1432	22.9219
1433	39.9219
1434	43.9219
1435	44.9219
1436	40.9219
1437	25.9219
1438	7.92188
1439	-16.0781
1440	-29.0781
1441	-44.0781
1442	-48.0781
1443	-41.0781
1444	-35.0781
1445	-15.0781
1446	-0.078125
1447	14.9219
1448	24.9219
1449	26.9219
1450	24.9219
1451	18.9219
1452	10.9219
1453	-0.078125
1454	-4.07813
1455	-3.07813
1456	0.921875
1457	9.92188
1458	14.9219
1459	22.9219
1460	19.9219
1461	17.9219
1462	16.9219
1463	3.92188
1464	-6.07813
1465	-21.0781
1466	-31.0781
1467	-36.0781
1468	-36.0781
1469	-29.0781
1470	-15.0781
1471	-2.07813
1472	13.9219
1473	27.9219
1474	33.9219
1475	34.9219
1476	28.9219
1477	12.9219
1478	-4.07813
1479	-15.0781
1480	-25.0781
1481	-28.0781
1482	-27.0781
1483	-19.0781
1484	-13.0781
1485	-6.07813
1486	2.92188
1487	9.92188
1488	7.92188
1489	9.92188
1490	7.92188
1491	2.92188
1492	-1.07813
1493	-7.07813
1494	-15.0781
1495	-18.0781
1496	-13.0781
1497	-0.078125
1498	12.9219
1499	26.9219
1500	33.9219
1501	35.9219
1502	36.9219
1503	25.9219
1504	12.9219
1505	-3.07813
1506	-17.0781
1507	-31.0781
1508	-35.0781
1509	-34.0781
1510	-26.0781
1511	-17.0781
1512	-8.07813
1513	2.92188
1514	12.9219
1515	21.9219
1516	18.9219
1517	18.9219
1518	7.92188
1519	-1.07813
1520	-6.07813
1521	-13.0781
1522	-12.0781
1523	-14.0781
1524	-4.07813
1525	2.92188
1526	8.92188
1527	14.9219
1528	10.9219
1529	4.92188
1530	-4.07813
1531	-17.0781
1532	-24.0781
1533	-33.0781
1534	-36.0781
1535	-33.0781
1536	-22.0781
1537	-10.0781
1538	7.92188
1539	20.9219
1540	33.9219
1541	37.9219
1542	34.9219
1543	25.9219
1544	12.9219
1545	-0.078125
1546	-9.07813
