##TITLE=4 film specter rel to air
##$NOTE=11.03.2023 11:45:3 ^0 x10 v:1
##$ITAB=-1,-1
##FIRSTX=499.643
##DELTAX=1.92912
##NPOINTS=2333
##XUNITS=1/CM
##YUNITS=ABSORBANCE
499.643	0.126099
501.572	0.118596
503.501	0.112752
505.43	0.112018
507.36	0.114467
509.289	0.115884
511.218	0.114899
513.147	0.113291
515.076	0.112436
517.005	0.111548
518.934	0.109834
520.863	0.108572
522.792	0.109526
524.722	0.112138
526.651	0.113823
528.58	0.113188
530.509	0.111599
532.438	0.111027
534.367	0.111573
536.296	0.111836
538.225	0.111002
540.155	0.109565
542.084	0.108178
544.013	0.106887
545.942	0.105683
547.871	0.104928
549.8	0.104778
551.729	0.104741
553.658	0.104326
555.588	0.103795
557.517	0.103816
559.446	0.104542
561.375	0.105468
563.304	0.106131
565.233	0.10654
567.162	0.106893
569.091	0.107223
571.021	0.107449
572.95	0.107552
574.879	0.10757
576.808	0.107518
578.737	0.107378
580.666	0.107112
582.595	0.106701
584.524	0.10622
586.454	0.105846
588.383	0.105718
590.312	0.105758
592.241	0.105732
594.17	0.10553
596.099	0.105353
598.028	0.105512
599.957	0.106034
601.887	0.106548
603.816	0.106651
605.745	0.106359
607.674	0.106052
609.603	0.105992
611.532	0.106032
613.461	0.105891
615.39	0.105553
617.32	0.105251
619.249	0.105158
621.178	0.105236
623.107	0.105342
625.036	0.105341
626.965	0.105174
628.894	0.104931
630.823	0.104816
632.753	0.104987
634.682	0.105445
636.611	0.106096
638.54	0.106809
640.469	0.107398
642.398	0.107734
644.327	0.107977
646.256	0.108489
648.186	0.109328
650.115	0.110022
652.044	0.110129
653.973	0.109856
655.902	0.109698
657.831	0.109699
659.76	0.109537
661.689	0.109319
663.619	0.109728
665.548	0.111276
667.477	0.113282
669.406	0.11393
671.335	0.11288
673.264	0.111575
675.193	0.111017
677.122	0.111222
679.052	0.11165
680.981	0.111851
682.91	0.111791
684.839	0.111616
686.768	0.111445
688.697	0.111358
690.626	0.111327
692.555	0.111184
694.485	0.110833
696.414	0.110461
698.343	0.110338
700.272	0.110435
702.201	0.110482
704.13	0.11043
706.059	0.11058
707.988	0.111114
709.917	0.11172
711.847	0.111935
713.776	0.111749
715.705	0.111601
717.634	0.1118
719.563	0.112178
721.492	0.112374
723.421	0.112302
725.35	0.112204
727.28	0.112302
729.209	0.11257
731.138	0.112827
733.067	0.112963
734.996	0.112992
736.925	0.112948
738.854	0.112846
740.783	0.112767
742.713	0.11288
744.642	0.113261
746.571	0.113765
748.5	0.114161
750.429	0.114383
752.358	0.114571
754.287	0.114903
756.216	0.115453
758.146	0.116183
760.075	0.116995
762.004	0.117782
763.933	0.118516
765.862	0.11925
767.791	0.119993
769.72	0.120638
771.649	0.121082
773.579	0.121405
775.508	0.12186
777.437	0.122739
779.366	0.124257
781.295	0.126474
783.224	0.129296
785.153	0.13261
787.082	0.136428
789.012	0.140799
790.941	0.145608
792.87	0.150661
794.799	0.155982
796.728	0.161929
798.657	0.169264
800.586	0.17939
802.515	0.193874
804.445	0.212285
806.374	0.229807
808.303	0.238465
810.232	0.233391
812.161	0.217686
814.09	0.199127
816.019	0.183785
817.948	0.173922
819.878	0.169222
821.807	0.168063
823.736	0.168741
825.665	0.170979
827.594	0.175652
829.523	0.182487
831.452	0.190323
833.381	0.202076
835.311	0.226875
837.24	0.27172
839.169	0.326425
841.098	0.357306
843.027	0.336939
844.956	0.283062
846.885	0.232508
848.814	0.201967
850.744	0.187412
852.673	0.179024
854.602	0.171987
856.531	0.166582
858.46	0.163034
860.389	0.160054
862.318	0.156912
864.247	0.154034
866.177	0.151708
868.106	0.149718
870.035	0.148072
871.964	0.147008
873.893	0.146357
875.822	0.145687
877.751	0.144973
879.68	0.144591
881.609	0.144858
883.539	0.145978
885.468	0.148132
887.397	0.151363
889.326	0.156077
891.255	0.164106
893.184	0.178128
895.113	0.198115
897.042	0.217749
898.972	0.226389
900.901	0.218094
902.83	0.1979
904.759	0.176396
906.688	0.160676
908.617	0.151626
910.546	0.14671
912.475	0.143505
914.405	0.141067
916.334	0.139343
918.263	0.138343
920.192	0.137939
922.121	0.137993
924.05	0.138424
925.979	0.139169
927.908	0.14018
929.838	0.1416
931.767	0.144018
933.696	0.148261
935.625	0.154449
937.554	0.161093
939.483	0.16564
941.412	0.166496
943.341	0.164456
945.271	0.161852
947.2	0.160599
949.129	0.161304
951.058	0.16372
952.987	0.167486
954.916	0.172599
956.845	0.179611
958.774	0.189315
960.704	0.202333
962.633	0.220142
964.562	0.247492
966.491	0.292588
968.42	0.361235
970.349	0.444726
972.278	0.507929
974.207	0.507014
976.137	0.444388
978.066	0.364143
979.995	0.298707
981.924	0.256895
983.853	0.235593
985.782	0.229054
987.711	0.234135
989.64	0.252899
991.57	0.290804
993.499	0.34872
995.428	0.410957
997.357	0.44214
999.286	0.417442
1001.22	0.355971
1003.14	0.293761
1005.07	0.248775
1007	0.2207
1008.93	0.20288
1010.86	0.19042
1012.79	0.181542
1014.72	0.175399
1016.65	0.170915
1018.58	0.167371
1020.51	0.164706
1022.44	0.162926
1024.36	0.16176
1026.29	0.16105
1028.22	0.161046
1030.15	0.162028
1032.08	0.163824
1034.01	0.165973
1035.94	0.168423
1037.87	0.171775
1039.8	0.176432
1041.73	0.181398
1043.66	0.184358
1045.58	0.183516
1047.51	0.179361
1049.44	0.174208
1051.37	0.170091
1053.3	0.167506
1055.23	0.165915
1057.16	0.16482
1059.09	0.164104
1061.02	0.163767
1062.95	0.163777
1064.88	0.164128
1066.81	0.164784
1068.73	0.165579
1070.66	0.166345
1072.59	0.167146
1074.52	0.168232
1076.45	0.169759
1078.38	0.171591
1080.31	0.173373
1082.24	0.174775
1084.17	0.175764
1086.1	0.176726
1088.03	0.178259
1089.95	0.180777
1091.88	0.184438
1093.81	0.189556
1095.74	0.196777
1097.67	0.206191
1099.6	0.215951
1101.53	0.222277
1103.46	0.221909
1105.39	0.214991
1107.32	0.204993
1109.25	0.195763
1111.18	0.189089
1113.1	0.184714
1115.03	0.181726
1116.96	0.179546
1118.89	0.177971
1120.82	0.176932
1122.75	0.176439
1124.68	0.176555
1126.61	0.177302
1128.54	0.178687
1130.47	0.180834
1132.4	0.183992
1134.32	0.18848
1136.25	0.194724
1138.18	0.203285
1140.11	0.214662
1142.04	0.229116
1143.97	0.24678
1145.9	0.267645
1147.83	0.290855
1149.76	0.31397
1151.69	0.333813
1153.62	0.348986
1155.55	0.361468
1157.47	0.375441
1159.4	0.395146
1161.33	0.423458
1163.26	0.459522
1165.19	0.49386
1167.12	0.50645
1169.05	0.479992
1170.98	0.420354
1172.91	0.351446
1174.84	0.292966
1176.77	0.25166
1178.69	0.225314
1180.62	0.208931
1182.55	0.198562
1184.48	0.19207
1186.41	0.188264
1188.34	0.186194
1190.27	0.185087
1192.2	0.184395
1194.13	0.183782
1196.06	0.183156
1197.99	0.18268
1199.91	0.182591
1201.84	0.182993
1203.77	0.183845
1205.7	0.185119
1207.63	0.186926
1209.56	0.189513
1211.49	0.193096
1213.42	0.197551
1215.35	0.202146
1217.28	0.205608
1219.21	0.206657
1221.14	0.204759
1223.06	0.200575
1224.99	0.19564
1226.92	0.19144
1228.85	0.188623
1230.78	0.187001
1232.71	0.18614
1234.64	0.185789
1236.57	0.185882
1238.5	0.186528
1240.43	0.188065
1242.36	0.190758
1244.28	0.194539
1246.21	0.199752
1248.14	0.208162
1250.07	0.221801
1252	0.239317
1253.93	0.253792
1255.86	0.256714
1257.79	0.2461
1259.72	0.228614
1261.65	0.212668
1263.58	0.202033
1265.51	0.195858
1267.43	0.192102
1269.36	0.189735
1271.29	0.188568
1273.22	0.188464
1275.15	0.189211
1277.08	0.190696
1279.01	0.192924
1280.94	0.195988
1282.87	0.199966
1284.8	0.204827
1286.73	0.210721
1288.65	0.218338
1290.58	0.228137
1292.51	0.238811
1294.44	0.247672
1296.37	0.253889
1298.3	0.260176
1300.23	0.268792
1302.16	0.27597
1304.09	0.273312
1306.02	0.257318
1307.95	0.234894
1309.87	0.216517
1311.8	0.207297
1313.73	0.205636
1315.66	0.207562
1317.59	0.210855
1319.52	0.215605
1321.45	0.222576
1323.38	0.232041
1325.31	0.243204
1327.24	0.253536
1329.17	0.259303
1331.1	0.258461
1333.02	0.253033
1334.95	0.247502
1336.88	0.245354
1338.81	0.247591
1340.74	0.253779
1342.67	0.263833
1344.6	0.278442
1346.53	0.298493
1348.46	0.325454
1350.39	0.362598
1352.32	0.413987
1354.24	0.479108
1356.17	0.546085
1358.1	0.591946
1360.03	0.599578
1361.96	0.579801
1363.89	0.56521
1365.82	0.58459
1367.75	0.653149
1369.68	0.776849
1371.61	0.951458
1373.54	1.14821
1375.47	1.2977
1377.39	1.31194
1379.32	1.1708
1381.25	0.953208
1383.18	0.739383
1385.11	0.56607
1387.04	0.44382
1388.97	0.368061
1390.9	0.324562
1392.83	0.298254
1394.76	0.279969
1396.69	0.266627
1398.61	0.257353
1400.54	0.250914
1402.47	0.24623
1404.4	0.242987
1406.33	0.241116
1408.26	0.240427
1410.19	0.240768
1412.12	0.242089
1414.05	0.244366
1415.98	0.247835
1417.91	0.253121
1419.83	0.260526
1421.76	0.26948
1423.69	0.280121
1425.62	0.295739
1427.55	0.323253
1429.48	0.369961
1431.41	0.437888
1433.34	0.519732
1435.27	0.597168
1437.2	0.65102
1439.13	0.68754
1441.06	0.733904
1442.98	0.810052
1444.91	0.924623
1446.84	1.07369
1448.77	1.22846
1450.7	1.34668
1452.63	1.40923
1454.56	1.42577
1456.49	1.42286
1458.42	1.42647
1460.35	1.42929
1462.28	1.39033
1464.2	1.28265
1466.13	1.13119
1468.06	0.970478
1469.99	0.809696
1471.92	0.655483
1473.85	0.527949
1475.78	0.440065
1477.71	0.382548
1479.64	0.339766
1481.57	0.305233
1483.5	0.279274
1485.43	0.260666
1487.35	0.245386
1489.28	0.23151
1491.21	0.220488
1493.14	0.212583
1495.07	0.205587
1497	0.198057
1498.93	0.191103
1500.86	0.185905
1502.79	0.18187
1504.72	0.178108
1506.65	0.174512
1508.57	0.171232
1510.5	0.168093
1512.43	0.165155
1514.36	0.162799
1516.29	0.161116
1518.22	0.159706
1520.15	0.158295
1522.08	0.15705
1524.01	0.155995
1525.94	0.154889
1527.87	0.153771
1529.8	0.152948
1531.72	0.152488
1533.65	0.152136
1535.58	0.151775
1537.51	0.151631
1539.44	0.151881
1541.37	0.152212
1543.3	0.152157
1545.23	0.151751
1547.16	0.151245
1549.09	0.15074
1551.02	0.150239
1552.94	0.149773
1554.87	0.149486
1556.8	0.149609
1558.73	0.150011
1560.66	0.14995
1562.59	0.149163
1564.52	0.148145
1566.45	0.147423
1568.38	0.147152
1570.31	0.147037
1572.24	0.146832
1574.16	0.146672
1576.09	0.146704
1578.02	0.14675
1579.95	0.146617
1581.88	0.146405
1583.81	0.14627
1585.74	0.146222
1587.67	0.146233
1589.6	0.146351
1591.53	0.146586
1593.46	0.146849
1595.39	0.147115
1597.31	0.147501
1599.24	0.148047
1601.17	0.148601
1603.1	0.149025
1605.03	0.14937
1606.96	0.149716
1608.89	0.15001
1610.82	0.150186
1612.75	0.150339
1614.68	0.150658
1616.61	0.151195
1618.53	0.151775
1620.46	0.15223
1622.39	0.152626
1624.32	0.153152
1626.25	0.153813
1628.18	0.154311
1630.11	0.154451
1632.04	0.154488
1633.97	0.15494
1635.9	0.155911
1637.83	0.156712
1639.76	0.156961
1641.68	0.157085
1643.61	0.157538
1645.54	0.158099
1647.47	0.158105
1649.4	0.157459
1651.33	0.156746
1653.26	0.156393
1655.19	0.156066
1657.12	0.15537
1659.05	0.154471
1660.98	0.153734
1662.9	0.15335
1664.83	0.153206
1666.76	0.153104
1668.69	0.153012
1670.62	0.153003
1672.55	0.1531
1674.48	0.153228
1676.41	0.15328
1678.34	0.153239
1680.27	0.153253
1682.2	0.153571
1684.12	0.154221
1686.05	0.154741
1687.98	0.154758
1689.91	0.154453
1691.84	0.15417
1693.77	0.1541
1695.7	0.154268
1697.63	0.154618
1699.56	0.155011
1701.49	0.15522
1703.42	0.15513
1705.35	0.154857
1707.27	0.154552
1709.2	0.154203
1711.13	0.153678
1713.06	0.15293
1714.99	0.152051
1716.92	0.15116
1718.85	0.150253
1720.78	0.149298
1722.71	0.148396
1724.64	0.147713
1726.57	0.147317
1728.49	0.147164
1730.42	0.147272
1732.35	0.147719
1734.28	0.148368
1736.21	0.14889
1738.14	0.149193
1740.07	0.149417
1742	0.149573
1743.93	0.149493
1745.86	0.149103
1747.79	0.148531
1749.72	0.14791
1751.64	0.147213
1753.57	0.14636
1755.5	0.145402
1757.43	0.144485
1759.36	0.143718
1761.29	0.143076
1763.22	0.142447
1765.15	0.141763
1767.08	0.141096
1769.01	0.140626
1770.94	0.140474
1772.86	0.140477
1774.79	0.140304
1776.72	0.139871
1778.65	0.139435
1780.58	0.139293
1782.51	0.139415
1784.44	0.13944
1786.37	0.139134
1788.3	0.138689
1790.23	0.138467
1792.16	0.138548
1794.08	0.138614
1796.01	0.138418
1797.94	0.138086
1799.87	0.137865
1801.8	0.137805
1803.73	0.13777
1805.66	0.137701
1807.59	0.137679
1809.52	0.137763
1811.45	0.137901
1813.38	0.138038
1815.31	0.138198
1817.23	0.13841
1819.16	0.138664
1821.09	0.138963
1823.02	0.13936
1824.95	0.139867
1826.88	0.140391
1828.81	0.140823
1830.74	0.141133
1832.67	0.141293
1834.6	0.141206
1836.53	0.140834
1838.45	0.140348
1840.38	0.140031
1842.31	0.140031
1844.24	0.140211
1846.17	0.140319
1848.1	0.140266
1850.03	0.140137
1851.96	0.139996
1853.89	0.139836
1855.82	0.139645
1857.75	0.139433
1859.68	0.139181
1861.6	0.138859
1863.53	0.13853
1865.46	0.13836
1867.39	0.13845
1869.32	0.138661
1871.25	0.138735
1873.18	0.138625
1875.11	0.138527
1877.04	0.138623
1878.97	0.138902
1880.9	0.139218
1882.82	0.139494
1884.75	0.139791
1886.68	0.140191
1888.61	0.140674
1890.54	0.141095
1892.47	0.141281
1894.4	0.141172
1896.33	0.140873
1898.26	0.140564
1900.19	0.140332
1902.12	0.140146
1904.05	0.139968
1905.97	0.139837
1907.9	0.139785
1909.83	0.139742
1911.76	0.139605
1913.69	0.139375
1915.62	0.139165
1917.55	0.139074
1919.48	0.139082
1921.41	0.139093
1923.34	0.139032
1925.27	0.138888
1927.19	0.138698
1929.12	0.138521
1931.05	0.138388
1932.98	0.138268
1934.91	0.138083
1936.84	0.137802
1938.77	0.137496
1940.7	0.137286
1942.63	0.137223
1944.56	0.137255
1946.49	0.137319
1948.41	0.137421
1950.34	0.137586
1952.27	0.13778
1954.2	0.137922
1956.13	0.137991
1958.06	0.138032
1959.99	0.138061
1961.92	0.138016
1963.85	0.137849
1965.78	0.137614
1967.71	0.137434
1969.64	0.137365
1971.56	0.137357
1973.49	0.137342
1975.42	0.137311
1977.35	0.137302
1979.28	0.137335
1981.21	0.137401
1983.14	0.13749
1985.07	0.137623
1987	0.137817
1988.93	0.138033
1990.86	0.138182
1992.78	0.138196
1994.71	0.138091
1996.64	0.137946
1998.57	0.137825
2000.5	0.137753
2002.43	0.137727
2004.36	0.137731
2006.29	0.137736
2008.22	0.137713
2010.15	0.137662
2012.08	0.137606
2014.01	0.137576
2015.93	0.137608
2017.86	0.137745
2019.79	0.137985
2021.72	0.138243
2023.65	0.138411
2025.58	0.138462
2027.51	0.138464
2029.44	0.138481
2031.37	0.138488
2033.3	0.138443
2035.23	0.138372
2037.15	0.138352
2039.08	0.138408
2041.01	0.1385
2042.94	0.138607
2044.87	0.138749
2046.8	0.138902
2048.73	0.138966
2050.66	0.138866
2052.59	0.13867
2054.52	0.138529
2056.45	0.138514
2058.37	0.138563
2060.3	0.138606
2062.23	0.138674
2064.16	0.138837
2066.09	0.139069
2068.02	0.139258
2069.95	0.139349
2071.88	0.139427
2073.81	0.139629
2075.74	0.140004
2077.67	0.140477
2079.6	0.140947
2081.52	0.141355
2083.45	0.141695
2085.38	0.141979
2087.31	0.142213
2089.24	0.142404
2091.17	0.142559
2093.1	0.142686
2095.03	0.142803
2096.96	0.142927
2098.89	0.143055
2100.82	0.143146
2102.74	0.143171
2104.67	0.14317
2106.6	0.143241
2108.53	0.143447
2110.46	0.143747
2112.39	0.144058
2114.32	0.144372
2116.25	0.144783
2118.18	0.14539
2120.11	0.146213
2122.04	0.147205
2123.97	0.148303
2125.89	0.149409
2127.82	0.150367
2129.75	0.150996
2131.68	0.151203
2133.61	0.151036
2135.54	0.150632
2137.47	0.150119
2139.4	0.149583
2141.33	0.149116
2143.26	0.148831
2145.19	0.148806
2147.11	0.14901
2149.04	0.149338
2150.97	0.149709
2152.9	0.150108
2154.83	0.150522
2156.76	0.150922
2158.69	0.151315
2160.62	0.151789
2162.55	0.152419
2164.48	0.153158
2166.41	0.153863
2168.33	0.154427
2170.26	0.154829
2172.19	0.155065
2174.12	0.155113
2176.05	0.155
2177.98	0.154832
2179.91	0.154714
2181.84	0.154645
2183.77	0.154553
2185.7	0.154397
2187.63	0.15422
2189.56	0.154083
2191.48	0.153999
2193.41	0.153919
2195.34	0.153792
2197.27	0.153619
2199.2	0.153445
2201.13	0.153289
2203.06	0.153106
2204.99	0.152829
2206.92	0.152446
2208.85	0.152025
2210.78	0.151671
2212.7	0.151471
2214.63	0.151464
2216.56	0.151607
2218.49	0.151798
2220.42	0.151966
2222.35	0.152145
2224.28	0.15242
2226.21	0.15279
2228.14	0.153146
2230.07	0.153373
2232	0.153446
2233.93	0.153401
2235.85	0.153288
2237.78	0.153188
2239.71	0.153214
2241.64	0.15344
2243.57	0.153844
2245.5	0.154385
2247.43	0.155078
2249.36	0.155948
2251.29	0.156902
2253.22	0.157727
2255.15	0.158223
2257.07	0.15831
2259	0.158029
2260.93	0.15753
2262.86	0.157032
2264.79	0.156714
2266.72	0.156571
2268.65	0.156414
2270.58	0.156053
2272.51	0.155462
2274.44	0.154749
2276.37	0.15403
2278.29	0.153382
2280.22	0.152883
2282.15	0.152619
2284.08	0.152631
2286.01	0.15288
2287.94	0.153265
2289.87	0.153686
2291.8	0.1541
2293.73	0.154531
2295.66	0.155019
2297.59	0.155546
2299.52	0.156064
2301.44	0.156586
2303.37	0.157205
2305.3	0.157977
2307.23	0.158835
2309.16	0.159674
2311.09	0.160505
2313.02	0.16148
2314.95	0.162742
2316.88	0.164305
2318.81	0.166041
2320.74	0.167729
2322.66	0.169171
2324.59	0.170359
2326.52	0.171492
2328.45	0.172794
2330.38	0.174281
2332.31	0.175704
2334.24	0.176764
2336.17	0.177434
2338.1	0.178031
2340.03	0.178834
2341.96	0.179543
2343.89	0.179452
2345.81	0.178513
2347.74	0.177622
2349.67	0.177797
2351.6	0.179622
2353.53	0.182844
2355.46	0.186104
2357.39	0.18798
2359.32	0.188459
2361.25	0.188257
2363.18	0.187613
2365.11	0.186473
2367.03	0.185001
2368.96	0.183427
2370.89	0.181742
2372.82	0.179813
2374.75	0.177634
2376.68	0.175355
2378.61	0.173154
2380.54	0.171154
2382.47	0.169466
2384.4	0.168224
2386.33	0.167542
2388.26	0.167403
2390.18	0.167622
2392.11	0.16796
2394.04	0.168258
2395.97	0.168474
2397.9	0.168617
2399.83	0.168685
2401.76	0.168677
2403.69	0.168586
2405.62	0.168387
2407.55	0.168067
2409.48	0.167696
2411.4	0.167437
2413.33	0.167434
2415.26	0.167706
2417.19	0.168189
2419.12	0.168861
2421.05	0.169731
2422.98	0.1707
2424.91	0.171507
2426.84	0.171908
2428.77	0.171871
2430.7	0.171535
2432.62	0.170983
2434.55	0.170152
2436.48	0.16903
2438.41	0.167833
2440.34	0.16688
2442.27	0.166284
2444.2	0.165874
2446.13	0.165448
2448.06	0.164992
2449.99	0.164625
2451.92	0.164385
2453.85	0.164185
2455.77	0.163948
2457.7	0.163684
2459.63	0.163434
2461.56	0.16322
2463.49	0.163064
2465.42	0.163005
2467.35	0.163055
2469.28	0.163193
2471.21	0.163421
2473.14	0.163785
2475.07	0.164298
2476.99	0.164855
2478.92	0.165306
2480.85	0.165588
2482.78	0.16577
2484.71	0.16596
2486.64	0.166208
2488.57	0.166496
2490.5	0.166781
2492.43	0.167007
2494.36	0.16709
2496.29	0.166958
2498.22	0.16664
2500.14	0.166303
2502.07	0.166166
2504	0.166324
2505.93	0.166695
2507.86	0.167128
2509.79	0.167578
2511.72	0.168148
2513.65	0.168972
2515.58	0.170084
2517.51	0.171397
2519.44	0.172766
2521.36	0.174061
2523.29	0.175224
2525.22	0.176304
2527.15	0.177422
2529.08	0.178637
2531.01	0.17985
2532.94	0.180891
2534.87	0.181713
2536.8	0.182467
2538.73	0.183366
2540.66	0.184502
2542.58	0.18585
2544.51	0.187395
2546.44	0.189184
2548.37	0.191203
2550.3	0.193271
2552.23	0.195115
2554.16	0.196577
2556.09	0.197728
2558.02	0.198792
2559.95	0.199979
2561.88	0.201412
2563.81	0.203174
2565.73	0.205394
2567.66	0.208209
2569.59	0.211644
2571.52	0.215546
2573.45	0.219685
2575.38	0.223831
2577.31	0.22766
2579.24	0.23056
2581.17	0.231748
2583.1	0.230755
2585.03	0.227856
2586.95	0.22395
2588.88	0.219981
2590.81	0.216508
2592.74	0.213733
2594.67	0.21178
2596.6	0.210804
2598.53	0.210858
2600.46	0.211781
2602.39	0.213321
2604.32	0.215365
2606.25	0.217962
2608.18	0.221045
2610.1	0.224179
2612.03	0.226709
2613.96	0.228221
2615.89	0.228789
2617.82	0.228724
2619.75	0.228194
2621.68	0.227181
2623.61	0.225736
2625.54	0.224103
2627.47	0.222538
2629.4	0.221144
2631.32	0.219981
2633.25	0.219238
2635.18	0.219199
2637.11	0.220014
2639.04	0.221545
2640.97	0.223435
2642.9	0.225307
2644.83	0.226972
2646.76	0.228528
2648.69	0.230279
2650.62	0.232484
2652.54	0.235121
2654.47	0.237868
2656.4	0.240313
2658.33	0.242157
2660.26	0.243262
2662.19	0.243616
2664.12	0.243402
2666.05	0.24307
2667.98	0.243194
2669.91	0.244094
2671.84	0.245571
2673.77	0.247049
2675.69	0.248011
2677.62	0.248319
2679.55	0.2482
2681.48	0.248011
2683.41	0.248013
2685.34	0.248237
2687.27	0.248512
2689.2	0.248671
2691.13	0.248789
2693.06	0.24919
2694.99	0.250215
2696.91	0.252042
2698.84	0.254722
2700.77	0.258292
2702.7	0.262774
2704.63	0.268139
2706.56	0.274382
2708.49	0.281583
2710.42	0.289876
2712.35	0.299481
2714.28	0.310772
2716.21	0.323904
2718.14	0.33779
2720.06	0.349408
2721.99	0.354903
2723.92	0.352302
2725.85	0.343178
2727.78	0.331295
2729.71	0.319859
2731.64	0.31013
2733.57	0.301858
2735.5	0.294313
2737.43	0.286994
2739.36	0.279907
2741.28	0.273506
2743.21	0.268331
2745.14	0.264607
2747.07	0.262178
2749	0.260769
2750.93	0.260205
2752.86	0.260392
2754.79	0.261259
2756.72	0.262767
2758.65	0.264869
2760.58	0.267367
2762.51	0.269927
2764.43	0.272327
2766.36	0.274638
2768.29	0.277111
2770.22	0.28001
2772.15	0.283624
2774.08	0.288307
2776.01	0.294285
2777.94	0.301502
2779.87	0.309867
