##TITLE=4 film interferogram
##$NOTE=11.03.2023 11:45:3 ^0 x10 v:1
##$ITAB=-1,-1
##FIRSTX=0
##DELTAX=1
##NPOINTS=6490
##XUNITS=1/CM
##YUNITS=ABSORBANCE
0	-2.0625
1	-8.0625
2	-9.0625
3	-5.0625
4	-7.0625
5	-3.0625
6	-0.0625
7	-1.0625
8	-1.0625
9	-3.0625
10	-5.0625
11	-3.0625
12	-6.0625
13	-5.0625
14	-2.0625
15	3.9375
16	7.9375
17	12.9375
18	13.9375
19	10.9375
20	6.9375
21	2.9375
22	1.9375
23	-3.0625
24	-13.0625
25	-22.0625
26	-28.0625
27	-27.0625
28	-26.0625
29	-21.0625
30	-12.0625
31	2.9375
32	13.9375
33	18.9375
34	26.9375
35	28.9375
36	27.9375
37	25.9375
38	18.9375
39	11.9375
40	4.9375
41	-5.0625
42	-12.0625
43	-19.0625
44	-18.0625
45	-19.0625
46	-25.0625
47	-20.0625
48	-16.0625
49	-5.0625
50	2.9375
51	11.9375
52	22.9375
53	28.9375
54	32.9375
55	30.9375
56	31.9375
57	28.9375
58	20.9375
59	8.9375
60	-7.0625
61	-21.0625
62	-38.0625
63	-50.0625
64	-60.0625
65	-63.0625
66	-60.0625
67	-52.0625
68	-38.0625
69	-19.0625
70	-0.0625
71	24.9375
72	42.9375
73	55.9375
74	64.9375
75	70.9375
76	66.9375
77	56.9375
78	38.9375
79	16.9375
80	-4.0625
81	-28.0625
82	-49.0625
83	-57.0625
84	-58.0625
85	-54.0625
86	-41.0625
87	-27.0625
88	-11.0625
89	4.9375
90	21.9375
91	33.9375
92	45.9375
93	49.9375
94	50.9375
95	45.9375
96	33.9375
97	19.9375
98	3.9375
99	-15.0625
100	-32.0625
101	-45.0625
102	-52.0625
103	-58.0625
104	-60.0625
105	-58.0625
106	-47.0625
107	-32.0625
108	-7.0625
109	18.9375
110	40.9375
111	58.9375
112	68.9375
113	69.9375
114	60.9375
115	46.9375
116	30.9375
117	5.9375
118	-14.0625
119	-36.0625
120	-51.0625
121	-59.0625
122	-64.0625
123	-62.0625
124	-48.0625
125	-32.0625
126	-7.0625
127	17.9375
128	36.9375
129	53.9375
130	65.9375
131	68.9375
132	62.9375
133	52.9375
134	38.9375
135	19.9375
136	-2.0625
137	-18.0625
138	-38.0625
139	-56.0625
140	-66.0625
141	-67.0625
142	-61.0625
143	-51.0625
144	-36.0625
145	-20.0625
146	-3.0625
147	10.9375
148	28.9375
149	37.9375
150	48.9375
151	55.9375
152	56.9375
153	47.9375
154	35.9375
155	15.9375
156	-0.0625
157	-21.0625
158	-34.0625
159	-48.0625
160	-55.0625
161	-54.0625
162	-45.0625
163	-36.0625
164	-18.0625
165	0.9375
166	20.9375
167	38.9375
168	49.9375
169	58.9375
170	59.9375
171	49.9375
172	34.9375
173	15.9375
174	-0.0625
175	-20.0625
176	-34.0625
177	-47.0625
178	-51.0625
179	-53.0625
180	-51.0625
181	-45.0625
182	-33.0625
183	-17.0625
184	-0.0625
185	13.9375
186	25.9375
187	36.9375
188	40.9375
189	45.9375
190	41.9375
191	39.9375
192	39.9375
193	29.9375
194	21.9375
195	5.9375
196	-9.0625
197	-23.0625
198	-34.0625
199	-40.0625
200	-41.0625
201	-38.0625
202	-33.0625
203	-29.0625
204	-19.0625
205	-6.0625
206	8.9375
207	25.9375
208	31.9375
209	35.9375
210	36.9375
211	28.9375
212	14.9375
213	4.9375
214	-5.0625
215	-12.0625
216	-15.0625
217	-15.0625
218	-16.0625
219	-10.0625
220	-10.0625
221	-11.0625
222	-7.0625
223	-3.0625
224	-2.0625
225	1.9375
226	0.9375
227	-1.0625
228	-5.0625
229	-3.0625
230	-7.0625
231	-6.0625
232	2.9375
233	7.9375
234	9.9375
235	14.9375
236	20.9375
237	20.9375
238	19.9375
239	17.9375
240	23.9375
241	22.9375
242	22.9375
243	16.9375
244	7.9375
245	-0.0625
246	-12.0625
247	-21.0625
248	-26.0625
249	-31.0625
250	-34.0625
251	-35.0625
252	-39.0625
253	-38.0625
254	-35.0625
255	-28.0625
256	-16.0625
257	-4.0625
258	9.9375
259	22.9375
260	34.9375
261	38.9375
262	39.9375
263	36.9375
264	28.9375
265	20.9375
266	7.9375
267	-5.0625
268	-15.0625
269	-22.0625
270	-30.0625
271	-27.0625
272	-17.0625
273	-5.0625
274	10.9375
275	23.9375
276	31.9375
277	34.9375
278	36.9375
279	33.9375
280	21.9375
281	9.9375
282	-5.0625
283	-18.0625
284	-27.0625
285	-33.0625
286	-42.0625
287	-47.0625
288	-47.0625
289	-48.0625
290	-35.0625
291	-20.0625
292	-8.0625
293	3.9375
294	14.9375
295	31.9375
296	49.9375
297	56.9375
298	63.9375
299	63.9375
300	59.9375
301	43.9375
302	22.9375
303	-3.0625
304	-28.0625
305	-51.0625
306	-70.0625
307	-80.0625
308	-84.0625
309	-80.0625
310	-68.0625
311	-54.0625
312	-30.0625
313	-0.0625
314	31.9375
315	57.9375
316	79.9375
317	96.9375
318	97.9375
319	89.9375
320	79.9375
321	58.9375
322	30.9375
323	4.9375
324	-22.0625
325	-47.0625
326	-71.0625
327	-84.0625
328	-86.0625
329	-85.0625
330	-66.0625
331	-46.0625
332	-29.0625
333	-4.0625
334	20.9375
335	34.9375
336	42.9375
337	50.9375
338	54.9375
339	54.9375
340	50.9375
341	40.9375
342	25.9375
343	5.9375
344	-13.0625
345	-37.0625
346	-53.0625
347	-61.0625
348	-67.0625
349	-64.0625
350	-52.0625
351	-36.0625
352	-15.0625
353	8.9375
354	30.9375
355	48.9375
356	60.9375
357	68.9375
358	66.9375
359	57.9375
360	40.9375
361	26.9375
362	9.9375
363	-9.0625
364	-19.0625
365	-22.0625
366	-28.0625
367	-32.0625
368	-33.0625
369	-32.0625
370	-32.0625
371	-29.0625
372	-25.0625
373	-19.0625
374	-15.0625
375	-4.0625
376	-2.0625
377	-0.0625
378	1.9375
379	6.9375
380	13.9375
381	17.9375
382	22.9375
383	25.9375
384	25.9375
385	28.9375
386	21.9375
387	16.9375
388	8.9375
389	4.9375
390	0.9375
391	-5.0625
392	-12.0625
393	-19.0625
394	-20.0625
395	-16.0625
396	-15.0625
397	-17.0625
398	-5.0625
399	0.9375
400	3.9375
401	9.9375
402	13.9375
403	12.9375
404	10.9375
405	12.9375
406	14.9375
407	11.9375
408	7.9375
409	0.9375
410	-9.0625
411	-21.0625
412	-36.0625
413	-47.0625
414	-52.0625
415	-54.0625
416	-49.0625
417	-37.0625
418	-17.0625
419	2.9375
420	19.9375
421	36.9375
422	55.9375
423	65.9375
424	73.9375
425	71.9375
426	62.9375
427	51.9375
428	31.9375
429	8.9375
430	-12.0625
431	-23.0625
432	-29.0625
433	-39.0625
434	-41.0625
435	-40.0625
436	-35.0625
437	-27.0625
438	-25.0625
439	-19.0625
440	-12.0625
441	-9.0625
442	-5.0625
443	-4.0625
444	-4.0625
445	-6.0625
446	-13.0625
447	-15.0625
448	-17.0625
449	-16.0625
450	-13.0625
451	-9.0625
452	-1.0625
453	4.9375
454	14.9375
455	21.9375
456	30.9375
457	44.9375
458	52.9375
459	56.9375
460	55.9375
461	51.9375
462	38.9375
463	20.9375
464	3.9375
465	-15.0625
466	-30.0625
467	-42.0625
468	-55.0625
469	-63.0625
470	-67.0625
471	-58.0625
472	-46.0625
473	-30.0625
474	-10.0625
475	10.9375
476	29.9375
477	43.9375
478	47.9375
479	43.9375
480	37.9375
481	26.9375
482	12.9375
483	-2.0625
484	-15.0625
485	-27.0625
486	-36.0625
487	-40.0625
488	-36.0625
489	-36.0625
490	-26.0625
491	-13.0625
492	-3.0625
493	16.9375
494	31.9375
495	39.9375
496	45.9375
497	46.9375
498	47.9375
499	41.9375
500	34.9375
501	29.9375
502	19.9375
503	4.9375
504	-12.0625
505	-33.0625
506	-47.0625
507	-56.0625
508	-65.0625
509	-66.0625
510	-57.0625
511	-45.0625
512	-31.0625
513	-18.0625
514	-1.0625
515	12.9375
516	26.9375
517	37.9375
518	48.9375
519	54.9375
520	58.9375
521	50.9375
522	38.9375
523	22.9375
524	8.9375
525	-4.0625
526	-13.0625
527	-23.0625
528	-21.0625
529	-20.0625
530	-25.0625
531	-26.0625
532	-24.0625
533	-24.0625
534	-22.0625
535	-20.0625
536	-11.0625
537	-1.0625
538	3.9375
539	12.9375
540	14.9375
541	18.9375
542	18.9375
543	17.9375
544	15.9375
545	12.9375
546	10.9375
547	0.9375
548	-9.0625
549	-19.0625
550	-29.0625
551	-34.0625
552	-29.0625
553	-16.0625
554	-5.0625
555	5.9375
556	14.9375
557	15.9375
558	15.9375
559	14.9375
560	15.9375
561	11.9375
562	14.9375
563	17.9375
564	18.9375
565	13.9375
566	9.9375
567	3.9375
568	-2.0625
569	-6.0625
570	-6.0625
571	-7.0625
572	-8.0625
573	-13.0625
574	-19.0625
575	-27.0625
576	-31.0625
577	-33.0625
578	-31.0625
579	-27.0625
580	-20.0625
581	-11.0625
582	-1.0625
583	3.9375
584	8.9375
585	13.9375
586	22.9375
587	30.9375
588	39.9375
589	43.9375
590	44.9375
591	42.9375
592	32.9375
593	19.9375
594	7.9375
595	-0.0625
596	-4.0625
597	-11.0625
598	-14.0625
599	-23.0625
600	-32.0625
601	-43.0625
602	-53.0625
603	-54.0625
604	-51.0625
605	-43.0625
606	-33.0625
607	-17.0625
608	-0.0625
609	11.9375
610	21.9375
611	29.9375
612	40.9375
613	42.9375
614	46.9375
615	43.9375
616	34.9375
617	25.9375
618	15.9375
619	8.9375
620	1.9375
621	-1.0625
622	-0.0625
623	3.9375
624	6.9375
625	2.9375
626	-2.0625
627	-10.0625
628	-20.0625
629	-26.0625
630	-31.0625
631	-34.0625
632	-37.0625
633	-35.0625
634	-30.0625
635	-25.0625
636	-22.0625
637	-18.0625
638	-12.0625
639	-5.0625
640	3.9375
641	16.9375
642	23.9375
643	29.9375
644	34.9375
645	34.9375
646	37.9375
647	39.9375
648	34.9375
649	33.9375
650	24.9375
651	17.9375
652	10.9375
653	1.9375
654	-5.0625
655	-12.0625
656	-21.0625
657	-22.0625
658	-27.0625
659	-25.0625
660	-22.0625
661	-15.0625
662	-13.0625
663	-11.0625
664	-9.0625
665	-7.0625
666	-7.0625
667	-7.0625
668	-9.0625
669	-13.0625
670	-15.0625
671	-17.0625
672	-20.0625
673	-19.0625
674	-16.0625
675	-9.0625
676	4.9375
677	16.9375
678	30.9375
679	41.9375
680	51.9375
681	53.9375
682	50.9375
683	45.9375
684	39.9375
685	30.9375
686	20.9375
687	4.9375
688	-11.0625
689	-26.0625
690	-36.0625
691	-46.0625
692	-49.0625
693	-51.0625
694	-44.0625
695	-44.0625
696	-38.0625
697	-35.0625
698	-27.0625
699	-16.0625
700	1.9375
701	18.9375
702	27.9375
703	39.9375
704	47.9375
705	49.9375
706	47.9375
707	40.9375
708	33.9375
709	20.9375
710	7.9375
711	-6.0625
712	-15.0625
713	-26.0625
714	-36.0625
715	-36.0625
716	-33.0625
717	-23.0625
718	-18.0625
719	-8.0625
720	1.9375
721	9.9375
722	16.9375
723	22.9375
724	28.9375
725	28.9375
726	28.9375
727	27.9375
728	20.9375
729	12.9375
730	4.9375
731	-11.0625
732	-27.0625
733	-38.0625
734	-50.0625
735	-54.0625
736	-58.0625
737	-52.0625
738	-41.0625
739	-37.0625
740	-26.0625
741	-9.0625
742	7.9375
743	25.9375
744	44.9375
745	56.9375
746	66.9375
747	73.9375
748	76.9375
749	73.9375
750	61.9375
751	43.9375
752	22.9375
753	1.9375
754	-22.0625
755	-39.0625
756	-51.0625
757	-54.0625
758	-53.0625
759	-47.0625
760	-44.0625
761	-38.0625
762	-31.0625
763	-20.0625
764	-18.0625
765	-14.0625
766	-7.0625
767	-8.0625
768	-7.0625
769	-7.0625
770	-2.0625
771	2.9375
772	8.9375
773	14.9375
774	21.9375
775	27.9375
776	31.9375
777	34.9375
778	39.9375
779	38.9375
780	36.9375
781	31.9375
782	26.9375
783	18.9375
784	8.9375
785	-1.0625
786	-16.0625
787	-27.0625
788	-37.0625
789	-43.0625
790	-45.0625
791	-49.0625
792	-43.0625
793	-35.0625
794	-26.0625
795	-15.0625
796	-2.0625
797	10.9375
798	19.9375
799	24.9375
800	29.9375
801	31.9375
802	22.9375
803	15.9375
804	7.9375
805	-3.0625
806	-6.0625
807	-8.0625
808	-14.0625
809	-11.0625
810	-6.0625
811	5.9375
812	14.9375
813	26.9375
814	36.9375
815	43.9375
816	42.9375
817	33.9375
818	21.9375
819	4.9375
820	-11.0625
821	-22.0625
822	-33.0625
823	-44.0625
824	-51.0625
825	-57.0625
826	-54.0625
827	-55.0625
828	-49.0625
829	-39.0625
830	-23.0625
831	-9.0625
832	2.9375
833	12.9375
834	21.9375
835	29.9375
836	34.9375
837	40.9375
838	41.9375
839	44.9375
840	44.9375
841	46.9375
842	41.9375
843	38.9375
844	30.9375
845	27.9375
846	17.9375
847	12.9375
848	3.9375
849	-4.0625
850	-13.0625
851	-20.0625
852	-28.0625
853	-39.0625
854	-50.0625
855	-54.0625
856	-55.0625
857	-57.0625
858	-57.0625
859	-53.0625
860	-46.0625
861	-37.0625
862	-26.0625
863	-12.0625
864	3.9375
865	21.9375
866	36.9375
867	47.9375
868	59.9375
869	61.9375
870	61.9375
871	58.9375
872	54.9375
873	47.9375
874	33.9375
875	20.9375
876	6.9375
877	-7.0625
878	-18.0625
879	-25.0625
880	-31.0625
881	-31.0625
882	-29.0625
883	-28.0625
884	-28.0625
885	-28.0625
886	-24.0625
887	-20.0625
888	-15.0625
889	-12.0625
890	-9.0625
891	-0.0625
892	4.9375
893	8.9375
894	12.9375
895	11.9375
896	12.9375
897	4.9375
898	2.9375
899	-3.0625
900	-11.0625
901	-21.0625
902	-25.0625
903	-27.0625
904	-25.0625
905	-14.0625
906	-2.0625
907	13.9375
908	26.9375
909	36.9375
910	49.9375
911	57.9375
912	61.9375
913	57.9375
914	54.9375
915	38.9375
916	29.9375
917	14.9375
918	-0.0625
919	-15.0625
920	-32.0625
921	-49.0625
922	-57.0625
923	-73.0625
924	-79.0625
925	-80.0625
926	-78.0625
927	-70.0625
928	-60.0625
929	-46.0625
930	-34.0625
931	-14.0625
932	4.9375
933	27.9375
934	49.9375
935	68.9375
936	84.9375
937	94.9375
938	90.9375
939	86.9375
940	66.9375
941	49.9375
942	28.9375
943	11.9375
944	-6.0625
945	-15.0625
946	-25.0625
947	-33.0625
948	-37.0625
949	-34.0625
950	-32.0625
951	-33.0625
952	-37.0625
953	-40.0625
954	-41.0625
955	-41.0625
956	-35.0625
957	-25.0625
958	-19.0625
959	-7.0625
960	6.9375
961	17.9375
962	25.9375
963	30.9375
964	25.9375
965	18.9375
966	8.9375
967	-1.0625
968	-2.0625
969	-0.0625
970	3.9375
971	8.9375
972	11.9375
973	16.9375
974	16.9375
975	13.9375
976	10.9375
977	6.9375
978	3.9375
979	-1.0625
980	-8.0625
981	-6.0625
982	-6.0625
983	-6.0625
984	-10.0625
985	-9.0625
986	-10.0625
987	-4.0625
988	-1.0625
989	2.9375
990	0.9375
991	-0.0625
992	-2.0625
993	-3.0625
994	-4.0625
995	-7.0625
996	-10.0625
997	-15.0625
998	-16.0625
999	-17.0625
1000	-9.0625
1001	0.9375
1002	10.9375
1003	22.9375
1004	34.9375
1005	41.9375
1006	40.9375
1007	34.9375
1008	22.9375
1009	5.9375
1010	-6.0625
1011	-16.0625
1012	-26.0625
1013	-30.0625
1014	-30.0625
1015	-33.0625
1016	-32.0625
1017	-38.0625
1018	-37.0625
1019	-38.0625
1020	-35.0625
1021	-28.0625
1022	-18.0625
1023	-1.0625
1024	17.9375
1025	30.9375
1026	47.9375
1027	62.9375
1028	73.9375
1029	77.9375
1030	75.9375
1031	63.9375
1032	47.9375
1033	21.9375
1034	-5.0625
1035	-34.0625
1036	-53.0625
1037	-68.0625
1038	-74.0625
1039	-69.0625
1040	-61.0625
1041	-49.0625
1042	-32.0625
1043	-13.0625
1044	0.9375
1045	12.9375
1046	22.9375
1047	29.9375
1048	34.9375
1049	32.9375
1050	27.9375
1051	19.9375
1052	10.9375
1053	-1.0625
1054	-3.0625
1055	-9.0625
1056	-16.0625
1057	-16.0625
1058	-19.0625
1059	-20.0625
1060	-27.0625
1061	-24.0625
1062	-22.0625
1063	-17.0625
1064	-8.0625
1065	13.9375
1066	30.9375
1067	45.9375
1068	56.9375
1069	62.9375
1070	63.9375
1071	57.9375
1072	41.9375
1073	26.9375
1074	8.9375
1075	-10.0625
1076	-27.0625
1077	-42.0625
1078	-54.0625
1079	-57.0625
1080	-51.0625
1081	-42.0625
1082	-36.0625
1083	-27.0625
1084	-22.0625
1085	-25.0625
1086	-33.0625
1087	-33.0625
1088	-29.0625
1089	-31.0625
1090	-22.0625
1091	-10.0625
1092	4.9375
1093	17.9375
1094	38.9375
1095	56.9375
1096	69.9375
1097	76.9375
1098	78.9375
1099	71.9375
1100	60.9375
1101	49.9375
1102	30.9375
1103	14.9375
1104	-3.0625
1105	-13.0625
1106	-21.0625
1107	-18.0625
1108	-20.0625
1109	-20.0625
1110	-19.0625
1111	-33.0625
1112	-46.0625
1113	-56.0625
1114	-65.0625
1115	-68.0625
1116	-60.0625
1117	-56.0625
1118	-41.0625
1119	-29.0625
1120	-15.0625
1121	0.9375
1122	10.9375
1123	17.9375
1124	26.9375
1125	27.9375
1126	27.9375
1127	27.9375
1128	20.9375
1129	20.9375
1130	26.9375
1131	31.9375
1132	38.9375
1133	47.9375
1134	58.9375
1135	65.9375
1136	66.9375
1137	59.9375
1138	46.9375
1139	26.9375
1140	3.9375
1141	-22.0625
1142	-43.0625
1143	-67.0625
1144	-81.0625
1145	-85.0625
1146	-81.0625
1147	-77.0625
1148	-61.0625
1149	-46.0625
1150	-33.0625
1151	-17.0625
1152	-8.0625
1153	-4.0625
1154	0.9375
1155	4.9375
1156	9.9375
1157	15.9375
1158	28.9375
1159	36.9375
1160	47.9375
1161	57.9375
1162	61.9375
1163	58.9375
1164	51.9375
1165	38.9375
1166	24.9375
1167	6.9375
1168	-9.0625
1169	-24.0625
1170	-34.0625
1171	-38.0625
1172	-37.0625
1173	-27.0625
1174	-18.0625
1175	-9.0625
1176	-2.0625
1177	4.9375
1178	3.9375
1179	7.9375
1180	7.9375
1181	2.9375
1182	-1.0625
1183	-9.0625
1184	-12.0625
1185	-21.0625
1186	-22.0625
1187	-21.0625
1188	-17.0625
1189	-12.0625
1190	1.9375
1191	10.9375
1192	19.9375
1193	19.9375
1194	15.9375
1195	4.9375
1196	-7.0625
1197	-21.0625
1198	-24.0625
1199	-21.0625
1200	-9.0625
1201	10.9375
1202	29.9375
1203	49.9375
1204	58.9375
1205	59.9375
1206	48.9375
1207	26.9375
1208	-0.0625
1209	-27.0625
1210	-49.0625
1211	-62.0625
1212	-60.0625
1213	-50.0625
1214	-37.0625
1215	-16.0625
1216	4.9375
1217	16.9375
1218	24.9375
1219	19.9375
1220	13.9375
1221	-1.0625
1222	-15.0625
1223	-19.0625
1224	-17.0625
1225	-8.0625
1226	10.9375
1227	29.9375
1228	39.9375
1229	47.9375
1230	45.9375
1231	30.9375
1232	10.9375
1233	-9.0625
1234	-25.0625
1235	-33.0625
1236	-31.0625
1237	-26.0625
1238	-14.0625
1239	-3.0625
1240	5.9375
1241	9.9375
1242	11.9375
1243	7.9375
1244	-4.0625
1245	-8.0625
1246	-15.0625
1247	-21.0625
1248	-25.0625
1249	-26.0625
1250	-24.0625
1251	-20.0625
1252	-18.0625
1253	-7.0625
1254	5.9375
1255	20.9375
1256	33.9375
1257	49.9375
1258	62.9375
1259	61.9375
1260	56.9375
1261	41.9375
1262	22.9375
1263	1.9375
1264	-20.0625
1265	-35.0625
1266	-43.0625
1267	-38.0625
1268	-33.0625
1269	-21.0625
1270	-13.0625
1271	-9.0625
1272	-4.0625
1273	-5.0625
1274	-10.0625
1275	-18.0625
1276	-19.0625
1277	-21.0625
1278	-21.0625
1279	-18.0625
1280	-8.0625
1281	0.9375
1282	12.9375
1283	23.9375
1284	28.9375
1285	28.9375
1286	19.9375
1287	9.9375
1288	-9.0625
1289	-23.0625
1290	-33.0625
1291	-35.0625
1292	-28.0625
1293	-5.0625
1294	16.9375
1295	44.9375
1296	66.9375
1297	78.9375
1298	79.9375
1299	72.9375
1300	55.9375
1301	33.9375
1302	10.9375
1303	-10.0625
1304	-30.0625
1305	-47.0625
1306	-59.0625
1307	-68.0625
1308	-67.0625
1309	-63.0625
1310	-61.0625
1311	-57.0625
1312	-53.0625
1313	-51.0625
1314	-48.0625
1315	-39.0625
1316	-30.0625
1317	-15.0625
1318	0.9375
1319	25.9375
1320	53.9375
1321	81.9375
1322	104.938
1323	114.938
1324	121.938
1325	104.938
1326	79.9375
1327	49.9375
1328	17.9375
1329	-14.0625
1330	-45.0625
1331	-63.0625
1332	-79.0625
1333	-84.0625
1334	-81.0625
1335	-73.0625
1336	-59.0625
1337	-46.0625
1338	-32.0625
1339	-12.0625
1340	1.9375
1341	9.9375
1342	18.9375
1343	17.9375
1344	12.9375
1345	14.9375
1346	15.9375
1347	22.9375
1348	28.9375
1349	39.9375
1350	51.9375
1351	55.9375
1352	49.9375
1353	31.9375
1354	8.9375
1355	-24.0625
1356	-55.0625
1357	-78.0625
1358	-87.0625
1359	-82.0625
1360	-67.0625
1361	-40.0625
1362	-11.0625
1363	11.9375
1364	33.9375
1365	48.9375
1366	53.9375
1367	49.9375
1368	42.9375
1369	36.9375
1370	29.9375
1371	31.9375
1372	38.9375
1373	43.9375
1374	47.9375
1375	43.9375
1376	37.9375
1377	22.9375
1378	1.9375
1379	-28.0625
1380	-62.0625
1381	-87.0625
1382	-110.063
1383	-119.063
1384	-117.063
1385	-100.063
1386	-75.0625
1387	-34.0625
1388	1.9375
1389	33.9375
1390	60.9375
1391	79.9375
1392	83.9375
1393	80.9375
1394	72.9375
1395	56.9375
1396	42.9375
1397	20.9375
1398	-3.0625
1399	-18.0625
1400	-31.0625
1401	-35.0625
1402	-32.0625
1403	-25.0625
1404	-11.0625
1405	-0.0625
1406	11.9375
1407	14.9375
1408	13.9375
1409	5.9375
1410	0.9375
1411	-3.0625
1412	-2.0625
1413	5.9375
1414	16.9375
1415	26.9375
1416	32.9375
1417	28.9375
1418	9.9375
1419	-6.0625
1420	-33.0625
1421	-55.0625
1422	-75.0625
1423	-84.0625
1424	-75.0625
1425	-60.0625
1426	-35.0625
1427	-1.0625
1428	28.9375
1429	52.9375
1430	69.9375
1431	78.9375
1432	78.9375
1433	70.9375
1434	50.9375
1435	29.9375
1436	2.9375
1437	-22.0625
1438	-37.0625
1439	-53.0625
1440	-68.0625
1441	-70.0625
1442	-65.0625
1443	-54.0625
1444	-36.0625
1445	-12.0625
1446	6.9375
1447	25.9375
1448	37.9375
1449	45.9375
1450	46.9375
1451	36.9375
1452	37.9375
1453	31.9375
1454	31.9375
1455	33.9375
1456	32.9375
1457	39.9375
1458	40.9375
1459	37.9375
1460	20.9375
1461	-6.0625
1462	-37.0625
1463	-74.0625
1464	-105.063
1465	-123.063
1466	-125.063
1467	-111.063
1468	-85.0625
1469	-39.0625
1470	9.9375
1471	48.9375
1472	72.9375
1473	77.9375
1474	74.9375
1475	62.9375
1476	41.9375
1477	24.9375
1478	14.9375
1479	22.9375
1480	36.9375
1481	52.9375
1482	66.9375
1483	67.9375
1484	58.9375
1485	36.9375
1486	6.9375
1487	-26.0625
1488	-63.0625
1489	-88.0625
1490	-106.063
1491	-111.063
1492	-103.063
1493	-90.0625
1494	-69.0625
1495	-38.0625
1496	-11.0625
1497	11.9375
1498	26.9375
1499	34.9375
1500	33.9375
1501	34.9375
1502	33.9375
1503	32.9375
1504	32.9375
1505	37.9375
1506	39.9375
1507	41.9375
1508	40.9375
1509	42.9375
1510	38.9375
1511	31.9375
1512	24.9375
1513	16.9375
1514	1.9375
1515	-14.0625
1516	-25.0625
1517	-38.0625
1518	-52.0625
1519	-55.0625
1520	-56.0625
1521	-55.0625
1522	-47.0625
1523	-28.0625
1524	-13.0625
1525	-0.0625
1526	8.9375
1527	14.9375
1528	14.9375
1529	8.9375
1530	6.9375
1531	2.9375
1532	5.9375
1533	13.9375
1534	23.9375
1535	32.9375
1536	46.9375
1537	59.9375
1538	53.9375
1539	49.9375
1540	33.9375
1541	7.9375
1542	-21.0625
1543	-48.0625
1544	-72.0625
1545	-82.0625
1546	-88.0625
1547	-91.0625
1548	-82.0625
1549	-64.0625
1550	-38.0625
1551	-6.0625
1552	22.9375
1553	48.9375
1554	66.9375
1555	74.9375
1556	70.9375
1557	54.9375
1558	37.9375
1559	25.9375
1560	22.9375
1561	28.9375
1562	45.9375
1563	60.9375
1564	62.9375
1565	50.9375
1566	22.9375
1567	-15.0625
1568	-58.0625
1569	-89.0625
1570	-108.063
1571	-110.063
1572	-91.0625
