##TITLE=интерферограмма воздуха
##$NOTE=11.03.2023 11:18:3 ^0 x10 v:1 [Без приставки]
##$ITAB=-1,-1
##FIRSTX=0
##DELTAX=1
##NPOINTS=6490
##XUNITS=1/CM
##YUNITS=ABSORBANCE
0	-12.0625
1	-21.0625
2	-22.0625
3	-24.0625
4	-22.0625
5	-12.0625
6	-7.0625
7	3.9375
8	10.9375
9	16.9375
10	22.9375
11	26.9375
12	27.9375
13	18.9375
14	10.9375
15	1.9375
16	-11.0625
17	-25.0625
18	-30.0625
19	-31.0625
20	-32.0625
21	-27.0625
22	-15.0625
23	-0.0625
24	11.9375
25	20.9375
26	28.9375
27	30.9375
28	30.9375
29	29.9375
30	24.9375
31	17.9375
32	8.9375
33	-6.0625
34	-14.0625
35	-21.0625
36	-29.0625
37	-32.0625
38	-31.0625
39	-26.0625
40	-20.0625
41	-13.0625
42	-4.0625
43	7.9375
44	15.9375
45	23.9375
46	28.9375
47	32.9375
48	37.9375
49	34.9375
50	25.9375
51	12.9375
52	-3.0625
53	-18.0625
54	-36.0625
55	-49.0625
56	-59.0625
57	-61.0625
58	-54.0625
59	-39.0625
60	-26.0625
61	-3.0625
62	22.9375
63	40.9375
64	55.9375
65	70.9375
66	72.9375
67	66.9375
68	54.9375
69	34.9375
70	11.9375
71	-16.0625
72	-46.0625
73	-62.0625
74	-75.0625
75	-74.0625
76	-64.0625
77	-48.0625
78	-30.0625
79	-9.0625
80	12.9375
81	34.9375
82	50.9375
83	67.9375
84	77.9375
85	76.9375
86	63.9375
87	49.9375
88	26.9375
89	0.9375
90	-21.0625
91	-48.0625
92	-63.0625
93	-77.0625
94	-84.0625
95	-80.0625
96	-73.0625
97	-59.0625
98	-35.0625
99	-6.0625
100	26.9375
101	54.9375
102	78.9375
103	94.9375
104	98.9375
105	90.9375
106	72.9375
107	47.9375
108	13.9375
109	-19.0625
110	-53.0625
111	-81.0625
112	-101.063
113	-112.063
114	-108.063
115	-87.0625
116	-58.0625
117	-23.0625
118	18.9375
119	50.9375
120	79.9375
121	99.9375
122	105.938
123	101.938
124	89.9375
125	69.9375
126	44.9375
127	7.9375
128	-22.0625
129	-51.0625
130	-75.0625
131	-95.0625
132	-99.0625
133	-96.0625
134	-82.0625
135	-63.0625
136	-35.0625
137	-9.0625
138	18.9375
139	44.9375
140	65.9375
141	83.9375
142	94.9375
143	96.9375
144	82.9375
145	63.9375
146	38.9375
147	7.9375
148	-26.0625
149	-58.0625
150	-84.0625
151	-101.063
152	-106.063
153	-102.063
154	-86.0625
155	-66.0625
156	-33.0625
157	2.9375
158	37.9375
159	69.9375
160	92.9375
161	99.9375
162	96.9375
163	81.9375
164	64.9375
165	43.9375
166	19.9375
167	-7.0625
168	-36.0625
169	-56.0625
170	-67.0625
171	-73.0625
172	-69.0625
173	-63.0625
174	-51.0625
175	-33.0625
176	-16.0625
177	0.9375
178	21.9375
179	33.9375
180	40.9375
181	52.9375
182	57.9375
183	59.9375
184	54.9375
185	41.9375
186	23.9375
187	4.9375
188	-11.0625
189	-30.0625
190	-48.0625
191	-56.0625
192	-57.0625
193	-53.0625
194	-48.0625
195	-41.0625
196	-26.0625
197	-11.0625
198	8.9375
199	24.9375
200	38.9375
201	42.9375
202	45.9375
203	36.9375
204	23.9375
205	9.9375
206	-0.0625
207	-3.0625
208	-9.0625
209	-7.0625
210	-6.0625
211	-5.0625
212	-6.0625
213	-7.0625
214	-4.0625
215	1.9375
216	0.9375
217	-1.0625
218	-9.0625
219	-13.0625
220	-17.0625
221	-20.0625
222	-22.0625
223	-13.0625
224	-1.0625
225	14.9375
226	19.9375
227	23.9375
228	26.9375
229	29.9375
230	28.9375
231	25.9375
232	16.9375
233	14.9375
234	8.9375
235	-1.0625
236	-10.0625
237	-25.0625
238	-34.0625
239	-40.0625
240	-43.0625
241	-41.0625
242	-40.0625
243	-37.0625
244	-31.0625
245	-20.0625
246	-7.0625
247	9.9375
248	26.9375
249	40.9375
250	60.9375
251	68.9375
252	68.9375
253	64.9375
254	48.9375
255	25.9375
256	0.9375
257	-21.0625
258	-48.0625
259	-65.0625
260	-80.0625
261	-86.0625
262	-82.0625
263	-68.0625
264	-46.0625
265	-16.0625
266	16.9375
267	49.9375
268	71.9375
269	84.9375
270	92.9375
271	91.9375
272	78.9375
273	58.9375
274	37.9375
275	12.9375
276	-16.0625
277	-42.0625
278	-66.0625
279	-84.0625
280	-91.0625
281	-88.0625
282	-81.0625
283	-61.0625
284	-49.0625
285	-29.0625
286	0.9375
287	28.9375
288	54.9375
289	79.9375
290	93.9375
291	99.9375
292	95.9375
293	79.9375
294	54.9375
295	21.9375
296	-13.0625
297	-46.0625
298	-73.0625
299	-95.0625
300	-110.063
301	-107.063
302	-98.0625
303	-76.0625
304	-47.0625
305	-12.0625
306	31.9375
307	65.9375
308	90.9375
309	103.938
310	105.938
311	96.9375
312	77.9375
313	58.9375
314	32.9375
315	0.9375
316	-25.0625
317	-51.0625
318	-74.0625
319	-87.0625
320	-90.0625
321	-81.0625
322	-71.0625
323	-47.0625
324	-25.0625
325	-1.0625
326	21.9375
327	40.9375
328	52.9375
329	59.9375
330	68.9375
331	69.9375
332	64.9375
333	49.9375
334	28.9375
335	2.9375
336	-22.0625
337	-44.0625
338	-61.0625
339	-70.0625
340	-74.0625
341	-67.0625
342	-54.0625
343	-34.0625
344	-16.0625
345	2.9375
346	24.9375
347	41.9375
348	52.9375
349	56.9375
350	54.9375
351	39.9375
352	25.9375
353	6.9375
354	-5.0625
355	-15.0625
356	-22.0625
357	-23.0625
358	-19.0625
359	-15.0625
360	-11.0625
361	-8.0625
362	-1.0625
363	2.9375
364	4.9375
365	7.9375
366	4.9375
367	-1.0625
368	-3.0625
369	-6.0625
370	-11.0625
371	-11.0625
372	-4.0625
373	2.9375
374	6.9375
375	14.9375
376	17.9375
377	12.9375
378	12.9375
379	8.9375
380	5.9375
381	0.9375
382	-2.0625
383	-7.0625
384	-12.0625
385	-18.0625
386	-26.0625
387	-29.0625
388	-27.0625
389	-22.0625
390	-16.0625
391	-13.0625
392	-4.0625
393	0.9375
394	7.9375
395	14.9375
396	23.9375
397	30.9375
398	37.9375
399	38.9375
400	34.9375
401	24.9375
402	11.9375
403	-5.0625
404	-24.0625
405	-34.0625
406	-40.0625
407	-40.0625
408	-38.0625
409	-29.0625
410	-18.0625
411	-3.0625
412	11.9375
413	24.9375
414	37.9375
415	46.9375
416	46.9375
417	39.9375
418	25.9375
419	7.9375
420	-10.0625
421	-29.0625
422	-41.0625
423	-46.0625
424	-43.0625
425	-34.0625
426	-23.0625
427	-11.0625
428	-1.0625
429	11.9375
430	20.9375
431	32.9375
432	35.9375
433	34.9375
434	29.9375
435	22.9375
436	4.9375
437	-6.0625
438	-17.0625
439	-30.0625
440	-36.0625
441	-40.0625
442	-39.0625
443	-33.0625
444	-28.0625
445	-17.0625
446	-4.0625
447	9.9375
448	24.9375
449	39.9375
450	52.9375
451	58.9375
452	59.9375
453	51.9375
454	37.9375
455	15.9375
456	-6.0625
457	-28.0625
458	-46.0625
459	-60.0625
460	-68.0625
461	-71.0625
462	-66.0625
463	-52.0625
464	-30.0625
465	-5.0625
466	25.9375
467	51.9375
468	74.9375
469	82.9375
470	79.9375
471	70.9375
472	52.9375
473	30.9375
474	5.9375
475	-19.0625
476	-41.0625
477	-55.0625
478	-68.0625
479	-73.0625
480	-76.0625
481	-69.0625
482	-55.0625
483	-31.0625
484	-8.0625
485	14.9375
486	30.9375
487	45.9375
488	55.9375
489	55.9375
490	54.9375
491	54.9375
492	50.9375
493	40.9375
494	28.9375
495	11.9375
496	-10.0625
497	-33.0625
498	-51.0625
499	-64.0625
500	-68.0625
501	-65.0625
502	-51.0625
503	-38.0625
504	-20.0625
505	-2.0625
506	14.9375
507	31.9375
508	46.9375
509	55.9375
510	64.9375
511	63.9375
512	53.9375
513	35.9375
514	18.9375
515	-1.0625
516	-20.0625
517	-34.0625
518	-43.0625
519	-49.0625
520	-44.0625
521	-38.0625
522	-37.0625
523	-33.0625
524	-29.0625
525	-18.0625
526	-10.0625
527	4.9375
528	16.9375
529	30.9375
530	37.9375
531	37.9375
532	35.9375
533	33.9375
534	27.9375
535	21.9375
536	14.9375
537	5.9375
538	-1.0625
539	-15.0625
540	-33.0625
541	-41.0625
542	-47.0625
543	-48.0625
544	-34.0625
545	-18.0625
546	-5.0625
547	7.9375
548	18.9375
549	24.9375
550	26.9375
551	27.9375
552	30.9375
553	24.9375
554	23.9375
555	17.9375
556	11.9375
557	0.9375
558	-10.0625
559	-17.0625
560	-19.0625
561	-18.0625
562	-17.0625
563	-8.0625
564	0.9375
565	-1.0625
566	-8.0625
567	-17.0625
568	-20.0625
569	-18.0625
570	-12.0625
571	-3.0625
572	7.9375
573	15.9375
574	16.9375
575	15.9375
576	11.9375
577	10.9375
578	8.9375
579	9.9375
580	10.9375
581	8.9375
582	6.9375
583	-2.0625
584	-8.0625
585	-20.0625
586	-23.0625
587	-15.0625
588	-11.0625
589	-7.0625
590	3.9375
591	0.9375
592	-5.0625
593	-8.0625
594	-7.0625
595	-4.0625
596	2.9375
597	11.9375
598	20.9375
599	29.9375
600	27.9375
601	25.9375
602	21.9375
603	11.9375
604	4.9375
605	-0.0625
606	-9.0625
607	-21.0625
608	-27.0625
609	-34.0625
610	-38.0625
611	-39.0625
612	-36.0625
613	-23.0625
614	-1.0625
615	13.9375
616	27.9375
617	36.9375
618	37.9375
619	34.9375
620	26.9375
621	17.9375
622	12.9375
623	3.9375
624	-8.0625
625	-13.0625
626	-22.0625
627	-29.0625
628	-33.0625
629	-31.0625
630	-29.0625
631	-22.0625
632	-13.0625
633	-3.0625
634	8.9375
635	15.9375
636	23.9375
637	29.9375
638	28.9375
639	29.9375
640	27.9375
641	24.9375
642	18.9375
643	7.9375
644	-2.0625
645	-11.0625
646	-21.0625
647	-32.0625
648	-38.0625
649	-39.0625
650	-31.0625
651	-23.0625
652	-17.0625
653	-3.0625
654	11.9375
655	19.9375
656	28.9375
657	38.9375
658	37.9375
659	35.9375
660	26.9375
661	17.9375
662	3.9375
663	-11.0625
664	-23.0625
665	-32.0625
666	-37.0625
667	-31.0625
668	-28.0625
669	-25.0625
670	-14.0625
671	-5.0625
672	2.9375
673	6.9375
674	12.9375
675	16.9375
676	17.9375
677	20.9375
678	21.9375
679	17.9375
680	11.9375
681	5.9375
682	1.9375
683	-3.0625
684	-5.0625
685	-6.0625
686	-11.0625
687	-16.0625
688	-18.0625
689	-21.0625
690	-17.0625
691	-9.0625
692	-3.0625
693	0.9375
694	5.9375
695	17.9375
696	21.9375
697	21.9375
698	21.9375
699	16.9375
700	14.9375
701	7.9375
702	0.9375
703	-5.0625
704	-11.0625
705	-18.0625
706	-27.0625
707	-27.0625
708	-22.0625
709	-16.0625
710	-11.0625
711	-3.0625
712	0.9375
713	9.9375
714	10.9375
715	10.9375
716	12.9375
717	11.9375
718	8.9375
719	6.9375
720	4.9375
721	2.9375
722	1.9375
723	-3.0625
724	-9.0625
725	-11.0625
726	-13.0625
727	-15.0625
728	-19.0625
729	-18.0625
730	-14.0625
731	-10.0625
732	-0.0625
733	3.9375
734	10.9375
735	24.9375
736	33.9375
737	37.9375
738	37.9375
739	31.9375
740	21.9375
741	6.9375
742	-9.0625
743	-23.0625
744	-34.0625
745	-43.0625
746	-45.0625
747	-44.0625
748	-36.0625
749	-24.0625
750	-7.0625
751	10.9375
752	22.9375
753	36.9375
754	41.9375
755	45.9375
756	44.9375
757	34.9375
758	22.9375
759	4.9375
760	-11.0625
761	-27.0625
762	-40.0625
763	-46.0625
764	-46.0625
765	-44.0625
766	-35.0625
767	-25.0625
768	-15.0625
769	-1.0625
770	11.9375
771	25.9375
772	34.9375
773	36.9375
774	38.9375
775	35.9375
776	27.9375
777	18.9375
778	8.9375
779	-2.0625
780	-13.0625
781	-23.0625
782	-28.0625
783	-30.0625
784	-34.0625
785	-31.0625
786	-16.0625
787	-4.0625
788	8.9375
789	21.9375
790	28.9375
791	34.9375
792	35.9375
793	27.9375
794	17.9375
795	7.9375
796	-4.0625
797	-15.0625
798	-25.0625
799	-34.0625
800	-40.0625
801	-38.0625
802	-26.0625
803	-12.0625
804	4.9375
805	17.9375
806	31.9375
807	36.9375
808	32.9375
809	25.9375
810	14.9375
811	0.9375
812	-10.0625
813	-19.0625
814	-27.0625
815	-34.0625
816	-31.0625
817	-30.0625
818	-26.0625
819	-18.0625
820	-6.0625
821	7.9375
822	20.9375
823	30.9375
824	37.9375
825	35.9375
826	30.9375
827	20.9375
828	11.9375
829	3.9375
830	-2.0625
831	-3.0625
832	-10.0625
833	-13.0625
834	-17.0625
835	-22.0625
836	-20.0625
837	-20.0625
838	-16.0625
839	-7.0625
840	-2.0625
841	4.9375
842	6.9375
843	15.9375
844	18.9375
845	22.9375
846	20.9375
847	19.9375
848	15.9375
849	8.9375
850	-0.0625
851	-8.0625
852	-21.0625
853	-30.0625
854	-31.0625
855	-26.0625
856	-21.0625
857	-10.0625
858	-0.0625
859	1.9375
860	5.9375
861	9.9375
862	6.9375
863	7.9375
864	5.9375
865	4.9375
866	1.9375
867	0.9375
868	-5.0625
869	-5.0625
870	-5.0625
871	-0.0625
872	8.9375
873	14.9375
874	13.9375
875	9.9375
876	4.9375
877	-3.0625
878	-6.0625
879	-14.0625
880	-17.0625
881	-12.0625
882	-8.0625
883	-5.0625
884	6.9375
885	6.9375
886	11.9375
887	15.9375
888	13.9375
889	14.9375
890	12.9375
891	5.9375
892	-1.0625
893	-10.0625
894	-17.0625
895	-21.0625
896	-19.0625
897	-15.0625
898	-9.0625
899	-0.0625
900	10.9375
901	14.9375
902	15.9375
903	17.9375
904	8.9375
905	2.9375
906	-7.0625
907	-11.0625
908	-8.0625
909	-7.0625
910	-10.0625
911	-9.0625
912	-10.0625
913	-4.0625
914	-3.0625
915	-2.0625
916	-0.0625
917	1.9375
918	3.9375
919	4.9375
920	2.9375
921	2.9375
922	1.9375
923	5.9375
924	15.9375
925	21.9375
926	21.9375
927	22.9375
928	18.9375
929	4.9375
930	-9.0625
931	-18.0625
932	-25.0625
933	-35.0625
934	-37.0625
935	-31.0625
936	-24.0625
937	-10.0625
938	0.9375
939	11.9375
940	20.9375
941	27.9375
942	34.9375
943	36.9375
944	31.9375
945	22.9375
946	13.9375
947	0.9375
948	-12.0625
949	-23.0625
950	-25.0625
951	-31.0625
952	-27.0625
953	-19.0625
954	-15.0625
955	-14.0625
956	-15.0625
957	-13.0625
958	-6.0625
959	-3.0625
960	-3.0625
961	5.9375
962	17.9375
963	23.9375
964	29.9375
965	31.9375
966	35.9375
967	36.9375
968	22.9375
969	13.9375
970	-2.0625
971	-14.0625
972	-32.0625
973	-45.0625
974	-48.0625
975	-49.0625
976	-43.0625
977	-27.0625
978	-8.0625
979	11.9375
980	26.9375
981	40.9375
982	51.9375
983	49.9375
984	40.9375
985	29.9375
986	19.9375
987	4.9375
988	-8.0625
989	-22.0625
990	-26.0625
991	-29.0625
992	-33.0625
993	-29.0625
994	-23.0625
995	-18.0625
996	-9.0625
997	-7.0625
998	-1.0625
999	-1.0625
1000	-3.0625
1001	1.9375
1002	7.9375
1003	13.9375
1004	21.9375
1005	28.9375
1006	29.9375
1007	24.9375
1008	14.9375
1009	4.9375
1010	-8.0625
1011	-19.0625
1012	-31.0625
1013	-36.0625
1014	-34.0625
1015	-31.0625
1016	-21.0625
1017	-11.0625
1018	0.9375
1019	15.9375
1020	30.9375
1021	40.9375
1022	44.9375
1023	37.9375
1024	27.9375
1025	14.9375
1026	-7.0625
1027	-25.0625
1028	-35.0625
1029	-38.0625
1030	-33.0625
1031	-21.0625
1032	-8.0625
1033	8.9375
1034	17.9375
1035	22.9375
1036	23.9375
1037	21.9375
1038	16.9375
1039	11.9375
1040	4.9375
1041	-5.0625
1042	-14.0625
1043	-20.0625
1044	-25.0625
1045	-27.0625
1046	-19.0625
1047	-10.0625
1048	-7.0625
1049	-2.0625
1050	3.9375
1051	-1.0625
1052	-1.0625
1053	-5.0625
1054	-1.0625
1055	1.9375
1056	10.9375
1057	17.9375
1058	25.9375
1059	33.9375
1060	33.9375
1061	26.9375
1062	14.9375
1063	3.9375
1064	-9.0625
1065	-26.0625
1066	-42.0625
1067	-49.0625
1068	-53.0625
1069	-44.0625
1070	-30.0625
1071	-11.0625
1072	8.9375
1073	29.9375
1074	45.9375
1075	55.9375
1076	56.9375
1077	46.9375
1078	28.9375
1079	5.9375
1080	-10.0625
1081	-23.0625
1082	-31.0625
1083	-37.0625
1084	-32.0625
1085	-25.0625
1086	-21.0625
1087	-10.0625
1088	-4.0625
1089	6.9375
1090	15.9375
1091	16.9375
1092	9.9375
1093	4.9375
1094	-2.0625
1095	-8.0625
1096	-10.0625
1097	-9.0625
1098	0.9375
1099	8.9375
1100	18.9375
1101	25.9375
1102	24.9375
1103	14.9375
1104	1.9375
1105	-13.0625
1106	-19.0625
1107	-25.0625
1108	-27.0625
1109	-26.0625
1110	-21.0625
1111	-6.0625
1112	5.9375
1113	13.9375
1114	19.9375
1115	27.9375
1116	24.9375
1117	20.9375
1118	7.9375
1119	-3.0625
1120	-18.0625
1121	-30.0625
1122	-35.0625
1123	-30.0625
1124	-19.0625
1125	-0.0625
1126	17.9375
1127	32.9375
1128	38.9375
1129	36.9375
1130	27.9375
1131	15.9375
1132	-1.0625
1133	-19.0625
1134	-33.0625
1135	-35.0625
1136	-36.0625
1137	-33.0625
1138	-20.0625
1139	-3.0625
1140	11.9375
1141	19.9375
1142	26.9375
1143	30.9375
1144	25.9375
1145	17.9375
1146	4.9375
1147	-5.0625
1148	-15.0625
1149	-21.0625
1150	-22.0625
1151	-16.0625
1152	-11.0625
1153	-0.0625
1154	7.9375
1155	13.9375
1156	15.9375
1157	14.9375
1158	6.9375
1159	-7.0625
1160	-19.0625
1161	-30.0625
1162	-32.0625
1163	-26.0625
1164	-11.0625
1165	0.9375
1166	14.9375
1167	33.9375
1168	43.9375
1169	42.9375
1170	34.9375
1171	23.9375
1172	5.9375
1173	-15.0625
1174	-25.0625
1175	-38.0625
1176	-37.0625
1177	-33.0625
1178	-22.0625
1179	-7.0625
1180	6.9375
1181	23.9375
1182	29.9375
1183	34.9375
1184	26.9375
1185	14.9375
1186	-5.0625
1187	-23.0625
1188	-33.0625
1189	-34.0625
1190	-29.0625
1191	-13.0625
1192	4.9375
1193	21.9375
1194	32.9375
1195	36.9375
1196	35.9375
1197	23.9375
1198	5.9375
1199	-13.0625
1200	-25.0625
1201	-38.0625
1202	-43.0625
1203	-40.0625
1204	-31.0625
1205	-24.0625
1206	-7.0625
1207	7.9375
1208	23.9375
1209	39.9375
1210	46.9375
1211	46.9375
1212	38.9375
1213	21.9375
1214	3.9375
1215	-12.0625
1216	-25.0625
1217	-32.0625
1218	-30.0625
1219	-19.0625
1220	-9.0625
1221	-0.0625
1222	5.9375
1223	3.9375
1224	-3.0625
1225	-14.0625
1226	-27.0625
1227	-28.0625
1228	-28.0625
1229	-19.0625
1230	-1.0625
1231	15.9375
1232	33.9375
1233	47.9375
1234	55.9375
1235	61.9375
1236	52.9375
1237	33.9375
1238	10.9375
1239	-17.0625
1240	-43.0625
1241	-64.0625
1242	-76.0625
1243	-82.0625
1244	-70.0625
1245	-46.0625
1246	-17.0625
1247	14.9375
1248	39.9375
1249	60.9375
1250	70.9375
1251	68.9375
1252	50.9375
1253	32.9375
1254	11.9375
1255	-8.0625
1256	-21.0625
1257	-25.0625
1258	-20.0625
1259	-14.0625
1260	-5.0625
1261	2.9375
1262	-0.0625
1263	-3.0625
1264	-10.0625
1265	-19.0625
1266	-25.0625
1267	-26.0625
1268	-29.0625
1269	-25.0625
1270	-20.0625
1271	-10.0625
1272	7.9375
1273	21.9375
1274	35.9375
1275	49.9375
1276	49.9375
1277	44.9375
1278	33.9375
1279	10.9375
1280	-14.0625
1281	-40.0625
1282	-58.0625
1283	-66.0625
1284	-53.0625
1285	-33.0625
1286	-7.0625
1287	19.9375
1288	40.9375
1289	51.9375
1290	47.9375
1291	36.9375
1292	22.9375
1293	2.9375
1294	-13.0625
1295	-23.0625
1296	-27.0625
1297	-25.0625
1298	-19.0625
1299	-7.0625
1300	4.9375
1301	16.9375
1302	17.9375
1303	20.9375
1304	21.9375
1305	5.9375
1306	-7.0625
1307	-26.0625
1308	-33.0625
1309	-38.0625
1310	-34.0625
1311	-18.0625
1312	-4.0625
1313	20.9375
1314	43.9375
1315	49.9375
1316	46.9375
1317	42.9375
1318	22.9375
1319	-5.0625
1320	-28.0625
1321	-49.0625
1322	-61.0625
1323	-57.0625
1324	-43.0625
1325	-25.0625
1326	-3.0625
1327	16.9375
1328	37.9375
1329	44.9375
1330	46.9375
1331	42.9375
1332	30.9375
1333	13.9375
1334	-7.0625
1335	-28.0625
1336	-43.0625
1337	-49.0625
1338	-38.0625
1339	-25.0625
1340	-6.0625
1341	19.9375
1342	37.9375
1343	48.9375
1344	43.9375
1345	33.9375
1346	10.9375
1347	-13.0625
1348	-31.0625
1349	-37.0625
1350	-39.0625
1351	-31.0625
1352	-15.0625
1353	0.9375
1354	18.9375
1355	25.9375
1356	25.9375
1357	21.9375
1358	16.9375
1359	3.9375
1360	-10.0625
1361	-19.0625
1362	-23.0625
1363	-22.0625
1364	-14.0625
1365	-1.0625
1366	18.9375
1367	30.9375
1368	43.9375
1369	49.9375
1370	38.9375
1371	18.9375
1372	-7.0625
1373	-38.0625
1374	-66.0625
1375	-79.0625
1376	-85.0625
1377	-76.0625
1378	-51.0625
1379	-17.0625
1380	23.9375
1381	56.9375
1382	79.9375
1383	86.9375
1384	82.9375
1385	66.9375
1386	38.9375
1387	6.9375
1388	-21.0625
1389	-41.0625
1390	-58.0625
1391	-64.0625
1392	-63.0625
1393	-53.0625
1394	-33.0625
1395	-14.0625
1396	6.9375
1397	22.9375
1398	32.9375
1399	31.9375
1400	21.9375
1401	11.9375
1402	4.9375
1403	1.9375
1404	9.9375
1405	19.9375
1406	33.9375
1407	45.9375
1408	49.9375
1409	43.9375
1410	24.9375
1411	-4.0625
1412	-34.0625
1413	-59.0625
1414	-77.0625
1415	-87.0625
1416	-79.0625
1417	-63.0625
1418	-38.0625
1419	-5.0625
1420	27.9375
1421	54.9375
1422	77.9375
1423	82.9375
1424	79.9375
1425	61.9375
1426	34.9375
1427	-2.0625
1428	-31.0625
1429	-58.0625
1430	-75.0625
1431	-79.0625
1432	-70.0625
1433	-51.0625
1434	-22.0625
1435	4.9375
1436	28.9375
1437	40.9375
1438	42.9375
1439	38.9375
1440	24.9375
1441	7.9375
1442	-4.0625
1443	-13.0625
1444	-9.0625
1445	0.9375
1446	15.9375
1447	26.9375
1448	35.9375
1449	36.9375
1450	30.9375
1451	20.9375
1452	2.9375
1453	-20.0625
1454	-41.0625
1455	-59.0625
1456	-63.0625
1457	-55.0625
1458	-41.0625
1459	-21.0625
1460	9.9375
1461	36.9375
1462	58.9375
1463	65.9375
1464	61.9375
1465	46.9375
1466	21.9375
1467	-4.0625
1468	-33.0625
1469	-52.0625
1470	-55.0625
1471	-48.0625
1472	-33.0625
1473	-17.0625
1474	-3.0625
1475	9.9375
1476	16.9375
1477	23.9375
1478	18.9375
1479	9.9375
1480	1.9375
1481	-10.0625
1482	-23.0625
1483	-29.0625
1484	-31.0625
1485	-23.0625
1486	-5.0625
1487	18.9375
1488	43.9375
1489	61.9375
1490	65.9375
1491	55.9375
1492	39.9375
1493	10.9375
1494	-21.0625
1495	-41.0625
1496	-57.0625
1497	-62.0625
1498	-55.0625
1499	-37.0625
1500	-17.0625
1501	4.9375
1502	25.9375
1503	38.9375
1504	42.9375
1505	38.9375
1506	29.9375
1507	11.9375
1508	-2.0625
1509	-14.0625
1510	-20.0625
1511	-20.0625
1512	-16.0625
1513	0.9375
1514	15.9375
1515	23.9375
1516	27.9375
1517	25.9375
1518	12.9375
1519	-3.0625
1520	-23.0625
1521	-40.0625
1522	-57.0625
1523	-62.0625
1524	-54.0625
1525	-36.0625
1526	-10.0625
1527	19.9375
1528	43.9375
1529	60.9375
1530	62.9375
1531	53.9375
1532	33.9375
1533	11.9375
1534	-10.0625
1535	-28.0625
1536	-38.0625
1537	-39.0625
1538	-37.0625
1539	-33.0625
1540	-22.0625
1541	-15.0625
1542	-6.0625
1543	4.9375
1544	19.9375
1545	32.9375
1546	33.9375
1547	29.9375
1548	16.9375
1549	1.9375
1550	-9.0625
1551	-13.0625
1552	-9.0625
1553	4.9375
1554	21.9375
1555	36.9375
1556	41.9375
1557	30.9375
1558	11.9375
1559	-16.0625
1560	-40.0625
1561	-54.0625
1562	-57.0625
1563	-49.0625
1564	-29.0625
1565	-10.0625
1566	8.9375
1567	22.9375
1568	32.9375
1569	38.9375
1570	42.9375
1571	41.9375
1572	33.9375
1573	24.9375
1574	4.9375
